t2 	 CS1 	 Deltamax 	 Nmu/N 	 Emin 	 check 
-1 	 0.993024 	 4.2775 	 0.587052 	 0.7 	 4 
-0.995 	 0.992995 	 4.27833 	 0.587125 	 0.705 	 4 
-0.99 	 0.992966 	 4.27915 	 0.587197 	 0.71 	 4 
-0.985 	 0.992937 	 4.27998 	 0.587269 	 0.715 	 4 
-0.98 	 0.992908 	 4.2808 	 0.58734 	 0.72 	 4 
-0.975 	 0.992879 	 4.28162 	 0.587411 	 0.725 	 4 
-0.97 	 0.992849 	 4.28244 	 0.587481 	 0.73 	 4 
-0.965 	 0.992819 	 4.28325 	 0.58755 	 0.735 	 4 
-0.96 	 0.992789 	 4.28407 	 0.587619 	 0.74 	 4 
-0.955 	 0.992758 	 4.28488 	 0.587688 	 0.745 	 4 
-0.95 	 0.992728 	 4.28569 	 0.587756 	 0.75 	 4 
-0.945 	 0.992697 	 4.2865 	 0.587823 	 0.755 	 4 
-0.94 	 0.992665 	 4.28731 	 0.58789 	 0.76 	 4 
-0.935 	 0.992634 	 4.28812 	 0.587957 	 0.765 	 4 
-0.93 	 0.992602 	 4.28892 	 0.588023 	 0.77 	 4 
-0.925 	 0.99257 	 4.28973 	 0.588089 	 0.775 	 4 
-0.92 	 0.992538 	 4.29053 	 0.588154 	 0.78 	 4 
-0.915 	 0.992506 	 4.29133 	 0.588219 	 0.785 	 4 
-0.91 	 0.992473 	 4.29213 	 0.588284 	 0.79 	 4 
-0.905 	 0.99244 	 4.29292 	 0.588348 	 0.795 	 4 
-0.9 	 0.992407 	 4.29372 	 0.588412 	 0.8 	 4 
-0.895 	 0.992373 	 4.29451 	 0.588475 	 0.805 	 4 
-0.89 	 0.992339 	 4.2953 	 0.588538 	 0.81 	 4 
-0.885 	 0.992305 	 4.29609 	 0.588601 	 0.815 	 4 
-0.88 	 0.992271 	 4.29688 	 0.588663 	 0.82 	 4 
-0.875 	 0.992236 	 4.29767 	 0.588725 	 0.825 	 4 
-0.87 	 0.992201 	 4.29845 	 0.588787 	 0.83 	 4 
-0.865 	 0.992166 	 4.29924 	 0.588848 	 0.835 	 4 
-0.86 	 0.992131 	 4.30002 	 0.588909 	 0.84 	 4 
-0.855 	 0.992095 	 4.3008 	 0.58897 	 0.845 	 4 
-0.85 	 0.992059 	 4.30158 	 0.589031 	 0.85 	 4 
-0.845 	 0.992022 	 4.30235 	 0.589091 	 0.855 	 4 
-0.84 	 0.991985 	 4.30313 	 0.589151 	 0.86 	 4 
-0.835 	 0.991948 	 4.3039 	 0.589211 	 0.865 	 4 
-0.83 	 0.991911 	 4.30467 	 0.58927 	 0.87 	 4 
-0.825 	 0.991873 	 4.30544 	 0.589329 	 0.875 	 4 
-0.82 	 0.991835 	 4.30621 	 0.589388 	 0.88 	 4 
-0.815 	 0.991796 	 4.30698 	 0.589447 	 0.885 	 4 
-0.81 	 0.991758 	 4.30774 	 0.589506 	 0.89 	 4 
-0.805 	 0.991719 	 4.30851 	 0.589564 	 0.895 	 4 
-0.8 	 0.991679 	 4.30927 	 0.589622 	 0.9 	 4 
-0.795 	 0.991639 	 4.31003 	 0.58968 	 0.905 	 4 
-0.79 	 0.991599 	 4.31079 	 0.589738 	 0.91 	 4 
-0.785 	 0.991559 	 4.31154 	 0.589796 	 0.915 	 4 
-0.78 	 0.991518 	 4.3123 	 0.589854 	 0.92 	 4 
-0.775 	 0.991476 	 4.31305 	 0.589911 	 0.925 	 4 
-0.77 	 0.991435 	 4.3138 	 0.589968 	 0.93 	 4 
-0.765 	 0.991393 	 4.31455 	 0.590025 	 0.935 	 4 
-0.76 	 0.99135 	 4.3153 	 0.590082 	 0.94 	 4 
-0.755 	 0.991307 	 4.31604 	 0.590139 	 0.945 	 4 
-0.75 	 0.991264 	 4.31679 	 0.590196 	 0.95 	 4 
-0.745 	 0.991221 	 4.31753 	 0.590253 	 0.955 	 4 
-0.74 	 0.991177 	 4.31827 	 0.590309 	 0.96 	 4 
-0.735 	 0.991132 	 4.31901 	 0.590366 	 0.965 	 4 
-0.73 	 0.991087 	 4.31974 	 0.590422 	 0.97 	 4 
-0.725 	 0.991042 	 4.32048 	 0.590478 	 0.975 	 4 
-0.72 	 0.990996 	 4.32121 	 0.590535 	 0.98 	 4 
-0.715 	 0.99095 	 4.32194 	 0.590591 	 0.985 	 4 
-0.71 	 0.990903 	 4.32267 	 0.590647 	 0.99 	 4 
-0.705 	 0.990856 	 4.3234 	 0.590704 	 0.995 	 4 
-0.7 	 0.990809 	 4.32413 	 0.59076 	 1 	 4 
-0.695 	 0.99076 	 4.32485 	 0.590816 	 0.995 	 4 
-0.69 	 0.990712 	 4.32557 	 0.590872 	 0.99 	 4 
-0.685 	 0.990663 	 4.32629 	 0.590928 	 0.985 	 4 
-0.68 	 0.990613 	 4.32701 	 0.590984 	 0.98 	 4 
-0.675 	 0.990563 	 4.32773 	 0.591041 	 0.975 	 4 
-0.67 	 0.990513 	 4.32844 	 0.591097 	 0.97 	 4 
-0.665 	 0.990462 	 4.32916 	 0.591153 	 0.965 	 4 
-0.66 	 0.99041 	 4.32987 	 0.59121 	 0.96 	 4 
-0.655 	 0.990358 	 4.33058 	 0.591266 	 0.955 	 4 
-0.65 	 0.990306 	 4.33128 	 0.591322 	 0.95 	 4 
-0.645 	 0.990253 	 4.33199 	 0.591379 	 0.945 	 4 
-0.64 	 0.990199 	 4.33269 	 0.591436 	 0.94 	 4 
-0.635 	 0.990145 	 4.33339 	 0.591492 	 0.935 	 4 
-0.63 	 0.99009 	 4.33409 	 0.591549 	 0.93 	 4 
-0.625 	 0.990034 	 4.33479 	 0.591606 	 0.925 	 4 
-0.62 	 0.989978 	 4.33549 	 0.591663 	 0.92 	 4 
-0.615 	 0.989922 	 4.33618 	 0.59172 	 0.915 	 4 
-0.61 	 0.989865 	 4.33687 	 0.591777 	 0.91 	 4 
-0.605 	 0.989807 	 4.33756 	 0.591835 	 0.905 	 4 
-0.6 	 0.989748 	 4.33825 	 0.591892 	 0.9 	 4 
-0.595 	 0.989689 	 4.33894 	 0.59195 	 0.895 	 4 
-0.59 	 0.989629 	 4.33962 	 0.592008 	 0.89 	 4 
-0.585 	 0.989569 	 4.34031 	 0.592066 	 0.885 	 4 
-0.58 	 0.989508 	 4.34099 	 0.592124 	 0.88 	 4 
-0.575 	 0.989446 	 4.34167 	 0.592183 	 0.875 	 4 
-0.57 	 0.989384 	 4.34234 	 0.592241 	 0.87 	 4 
-0.565 	 0.98932 	 4.34302 	 0.5923 	 0.865 	 4 
-0.56 	 0.989256 	 4.34369 	 0.592359 	 0.86 	 4 
-0.555 	 0.989192 	 4.34436 	 0.592418 	 0.855 	 4 
-0.55 	 0.989126 	 4.34503 	 0.592478 	 0.85 	 4 
-0.545 	 0.98906 	 4.34569 	 0.592538 	 0.845 	 4 
-0.54 	 0.988993 	 4.34636 	 0.592598 	 0.84 	 4 
-0.535 	 0.988926 	 4.34702 	 0.592658 	 0.835 	 4 
-0.53 	 0.988857 	 4.34768 	 0.592719 	 0.83 	 4 
-0.525 	 0.988788 	 4.34834 	 0.592779 	 0.825 	 4 
-0.52 	 0.988718 	 4.349 	 0.592841 	 0.82 	 4 
-0.515 	 0.988647 	 4.34965 	 0.592902 	 0.815 	 4 
-0.51 	 0.988575 	 4.3503 	 0.592964 	 0.81 	 4 
-0.505 	 0.988502 	 4.35095 	 0.593026 	 0.805 	 4 
-0.5 	 0.988429 	 4.3516 	 0.593088 	 0.8 	 4 
-0.495 	 0.988354 	 4.35225 	 0.593151 	 0.795 	 4 
-0.49 	 0.988279 	 4.35289 	 0.593214 	 0.79 	 4 
-0.485 	 0.988202 	 4.35353 	 0.593277 	 0.785 	 4 
-0.48 	 0.988125 	 4.35417 	 0.593341 	 0.78 	 4 
-0.475 	 0.988047 	 4.35481 	 0.593405 	 0.775 	 4 
-0.47 	 0.987967 	 4.35544 	 0.59347 	 0.77 	 4 
-0.465 	 0.987887 	 4.35608 	 0.593535 	 0.765 	 4 
-0.46 	 0.987806 	 4.35671 	 0.5936 	 0.76 	 4 
-0.455 	 0.987723 	 4.35734 	 0.593666 	 0.755 	 4 
-0.45 	 0.98764 	 4.35796 	 0.593732 	 0.75 	 4 
-0.445 	 0.987555 	 4.35859 	 0.593799 	 0.745 	 4 
-0.44 	 0.98747 	 4.35922 	 0.593866 	 0.74 	 4 
-0.435 	 0.987383 	 4.35984 	 0.593933 	 0.735 	 4 
-0.43 	 0.987295 	 4.36046 	 0.594001 	 0.73 	 4 
-0.425 	 0.987206 	 4.36108 	 0.59407 	 0.725 	 4 
-0.42 	 0.987116 	 4.3617 	 0.594139 	 0.72 	 4 
-0.415 	 0.987024 	 4.36231 	 0.594208 	 0.715 	 4 
-0.41 	 0.986931 	 4.36293 	 0.594278 	 0.71 	 4 
-0.405 	 0.986837 	 4.36354 	 0.594348 	 0.705 	 4 
-0.4 	 0.986742 	 4.36414 	 0.594419 	 0.7 	 4 
-0.395 	 0.986645 	 4.36475 	 0.594491 	 0.695 	 4 
-0.39 	 0.986547 	 4.36535 	 0.594563 	 0.69 	 4 
-0.385 	 0.986447 	 4.36595 	 0.594636 	 0.685 	 4 
-0.38 	 0.986346 	 4.36655 	 0.594709 	 0.68 	 4 
-0.375 	 0.986244 	 4.36715 	 0.594783 	 0.675 	 4 
-0.37 	 0.98614 	 4.36774 	 0.594857 	 0.67 	 4 
-0.365 	 0.986035 	 4.36834 	 0.594932 	 0.665 	 4 
-0.36 	 0.985928 	 4.36893 	 0.595007 	 0.66 	 4 
-0.355 	 0.985819 	 4.36951 	 0.595084 	 0.655 	 4 
-0.35 	 0.985709 	 4.3701 	 0.595161 	 0.65 	 4 
-0.345 	 0.985597 	 4.37068 	 0.595238 	 0.645 	 4 
-0.34 	 0.985484 	 4.37126 	 0.595316 	 0.64 	 4 
-0.335 	 0.985368 	 4.37184 	 0.595395 	 0.635 	 4 
-0.33 	 0.985251 	 4.37242 	 0.595475 	 0.63 	 4 
-0.325 	 0.985133 	 4.37299 	 0.595555 	 0.625 	 4 
-0.32 	 0.985012 	 4.37356 	 0.595636 	 0.62 	 4 
-0.315 	 0.984889 	 4.37413 	 0.595718 	 0.615 	 4 
-0.31 	 0.984765 	 4.37469 	 0.5958 	 0.61 	 4 
-0.305 	 0.984638 	 4.37526 	 0.595883 	 0.605 	 4 
-0.3 	 0.98451 	 4.37582 	 0.595967 	 0.6 	 4 
-0.295 	 0.984379 	 4.37638 	 0.596052 	 0.595 	 4 
-0.29 	 0.984247 	 4.37693 	 0.596137 	 0.59 	 4 
-0.285 	 0.984112 	 4.37748 	 0.596224 	 0.585 	 4 
-0.28 	 0.983974 	 4.37804 	 0.596311 	 0.58 	 4 
-0.275 	 0.983835 	 4.37858 	 0.596399 	 0.575 	 4 
-0.27 	 0.983693 	 4.37913 	 0.596488 	 0.57 	 4 
-0.265 	 0.983549 	 4.37967 	 0.596578 	 0.565 	 4 
-0.26 	 0.983402 	 4.38021 	 0.596668 	 0.56 	 4 
-0.255 	 0.983253 	 4.38075 	 0.59676 	 0.555 	 4 
-0.25 	 0.983101 	 4.38129 	 0.596852 	 0.55 	 4 
-0.245 	 0.982946 	 4.38182 	 0.596946 	 0.545 	 4 
-0.24 	 0.982789 	 4.38235 	 0.59704 	 0.54 	 4 
-0.235 	 0.982629 	 4.38288 	 0.597135 	 0.535 	 4 
-0.23 	 0.982466 	 4.3834 	 0.597232 	 0.53 	 4 
-0.225 	 0.9823 	 4.38392 	 0.597329 	 0.525 	 4 
-0.22 	 0.982131 	 4.38444 	 0.597427 	 0.52 	 4 
-0.215 	 0.981959 	 4.38496 	 0.597526 	 0.515 	 4 
-0.21 	 0.981783 	 4.38547 	 0.597627 	 0.51 	 4 
-0.205 	 0.981604 	 4.38599 	 0.597728 	 0.505 	 4 
-0.2 	 0.981422 	 4.38649 	 0.597831 	 0.5 	 4 
-0.195 	 0.981237 	 4.387 	 0.597934 	 0.495 	 4 
-0.19 	 0.981047 	 4.3875 	 0.598039 	 0.49 	 4 
-0.185 	 0.980854 	 4.388 	 0.598145 	 0.485 	 4 
-0.18 	 0.980658 	 4.3885 	 0.598252 	 0.48 	 4 
-0.175 	 0.980457 	 4.389 	 0.59836 	 0.475 	 4 
-0.17 	 0.980252 	 4.38949 	 0.59847 	 0.47 	 4 
-0.165 	 0.980043 	 4.38998 	 0.59858 	 0.465 	 4 
-0.16 	 0.97983 	 4.39046 	 0.598692 	 0.46 	 4 
-0.155 	 0.979612 	 4.39095 	 0.598805 	 0.455 	 4 
-0.15 	 0.97939 	 4.39143 	 0.59892 	 0.45 	 4 
-0.145 	 0.979163 	 4.3919 	 0.599036 	 0.445 	 4 
-0.14 	 0.978931 	 4.39238 	 0.599153 	 0.44 	 4 
-0.135 	 0.978694 	 4.39285 	 0.599271 	 0.435 	 4 
-0.13 	 0.978452 	 4.39332 	 0.599391 	 0.43 	 4 
-0.125 	 0.978205 	 4.39378 	 0.599512 	 0.425 	 4 
-0.12 	 0.977952 	 4.39425 	 0.599635 	 0.42 	 4 
-0.115 	 0.977693 	 4.39471 	 0.599759 	 0.415 	 4 
-0.11 	 0.977429 	 4.39516 	 0.599885 	 0.41 	 4 
-0.105 	 0.977158 	 4.39561 	 0.600012 	 0.405 	 4 
-0.1 	 0.976881 	 4.39607 	 0.60014 	 0.4 	 4 
-0.095 	 0.976598 	 4.39651 	 0.600271 	 0.395 	 4 
-0.09 	 0.976308 	 4.39696 	 0.600402 	 0.39 	 4 
-0.085 	 0.97601 	 4.3974 	 0.600536 	 0.385 	 4 
-0.08 	 0.975706 	 4.39783 	 0.600671 	 0.38 	 4 
-0.075 	 0.975394 	 4.39827 	 0.600808 	 0.375 	 4 
-0.07 	 0.975075 	 4.3987 	 0.600946 	 0.37 	 4 
-0.065 	 0.974747 	 4.39913 	 0.601086 	 0.365 	 4 
-0.06 	 0.974411 	 4.39955 	 0.601228 	 0.36 	 4 
-0.055 	 0.974066 	 4.39996 	 0.601375 	 0.355 	 3 
-0.05 	 0.973712 	 4.40038 	 0.60152 	 0.35 	 3 
-0.045 	 0.973349 	 4.40079 	 0.601668 	 0.345 	 3 
-0.04 	 0.972977 	 4.4012 	 0.601817 	 0.34 	 3 
-0.035 	 0.972594 	 4.40161 	 0.601969 	 0.335 	 3 
-0.03 	 0.972201 	 4.40202 	 0.602122 	 0.33 	 3 
-0.025 	 0.971797 	 4.40242 	 0.602278 	 0.325 	 3 
-0.02 	 0.971381 	 4.40282 	 0.602435 	 0.32 	 3 
-0.015 	 0.970954 	 4.40321 	 0.602595 	 0.315 	 3 
-0.01 	 0.970515 	 4.4036 	 0.602757 	 0.31 	 3 
-0.005 	 0.970063 	 4.40399 	 0.602921 	 0.305 	 3 
8.20524e-16 	 0.969597 	 4.40437 	 0.603087 	 0.3 	 3 
0.005 	 0.969118 	 4.40475 	 0.603256 	 0.295 	 3 
0.01 	 0.968624 	 4.40513 	 0.603427 	 0.29 	 3 
0.015 	 0.968115 	 4.4055 	 0.6036 	 0.285 	 3 
0.02 	 0.967591 	 4.40587 	 0.603776 	 0.28 	 3 
0.025 	 0.96705 	 4.40623 	 0.603954 	 0.275 	 3 
0.03 	 0.966492 	 4.4066 	 0.604135 	 0.27 	 3 
0.035 	 0.965916 	 4.40695 	 0.604319 	 0.265 	 3 
0.04 	 0.965321 	 4.40731 	 0.604505 	 0.26 	 3 
0.045 	 0.964707 	 4.40766 	 0.604694 	 0.255 	 3 
0.05 	 0.964072 	 4.408 	 0.604886 	 0.25 	 3 
0.055 	 0.963416 	 4.40834 	 0.605081 	 0.245 	 3 
0.06 	 0.962737 	 4.40868 	 0.605278 	 0.24 	 3 
0.065 	 0.962035 	 4.40902 	 0.605479 	 0.235 	 3 
0.07 	 0.961309 	 4.40934 	 0.605683 	 0.23 	 3 
0.075 	 0.960557 	 4.40967 	 0.60589 	 0.225 	 3 
0.08 	 0.959777 	 4.40999 	 0.6061 	 0.22 	 3 
0.085 	 0.95897 	 4.41031 	 0.606314 	 0.215 	 3 
0.09 	 0.958133 	 4.41062 	 0.606531 	 0.21 	 3 
0.095 	 0.957266 	 4.41093 	 0.606752 	 0.205 	 3 
0.1 	 0.956366 	 4.41123 	 0.606976 	 0.2 	 3 
0.105 	 0.955432 	 4.41153 	 0.607204 	 0.195 	 3 
0.11 	 0.954463 	 4.41183 	 0.607436 	 0.19 	 3 
0.115 	 0.953458 	 4.41212 	 0.607672 	 0.185 	 3 
0.12 	 0.952414 	 4.41241 	 0.607912 	 0.18 	 3 
0.125 	 0.95133 	 4.41269 	 0.608156 	 0.175 	 3 
0.13 	 0.950204 	 4.41296 	 0.608405 	 0.17 	 3 
0.135 	 0.949036 	 4.41324 	 0.608658 	 0.165 	 3 
0.14 	 0.947823 	 4.4135 	 0.608916 	 0.16 	 3 
0.145 	 0.946565 	 4.41376 	 0.609179 	 0.155 	 3 
0.15 	 0.94526 	 4.41402 	 0.609446 	 0.15 	 3 
0.155 	 0.943907 	 4.41427 	 0.609719 	 0.145 	 3 
0.16 	 0.942507 	 4.41452 	 0.609998 	 0.14 	 3 
0.165 	 0.94106 	 4.41476 	 0.610282 	 0.135 	 3 
0.17 	 0.939566 	 4.415 	 0.610571 	 0.13 	 3 
0.175 	 0.938029 	 4.41523 	 0.610867 	 0.125 	 3 
0.18 	 0.936451 	 4.41546 	 0.611169 	 0.12 	 3 
0.185 	 0.934838 	 4.41568 	 0.611478 	 0.115 	 3 
0.19 	 0.933199 	 4.41589 	 0.611793 	 0.11 	 3 
0.195 	 0.931544 	 4.4161 	 0.612116 	 0.105 	 3 
0.2 	 0.929889 	 4.4163 	 0.612447 	 0.1 	 3 
0.205 	 0.928257 	 4.4165 	 0.612785 	 0.095 	 3 
0.21 	 0.926677 	 4.41669 	 0.613132 	 0.09 	 3 
0.215 	 0.925192 	 4.41688 	 0.613488 	 0.085 	 3 
0.22 	 0.923858 	 4.41706 	 0.613854 	 0.08 	 3 
0.225 	 0.922755 	 4.41723 	 0.614229 	 0.075 	 3 
0.23 	 0.921995 	 4.41739 	 0.614615 	 0.07 	 3 
0.235 	 0.921738 	 4.41755 	 0.615012 	 0.065 	 3 
0.24 	 0.922215 	 4.4177 	 0.615422 	 0.06 	 3 
0.245 	 0.923767 	 4.41785 	 0.615844 	 0.055 	 3 
0.25 	 0.926908 	 4.41798 	 0.61628 	 0.05 	 3 
0.255 	 0.932438 	 4.41811 	 0.61673 	 0.045 	 3 
0.26 	 0.941626 	 4.41823 	 0.617196 	 0.04 	 3 
0.265 	 0.956575 	 4.41835 	 0.617677 	 0.035 	 3 
0.27 	 0.980925 	 4.41845 	 0.618173 	 0.03 	 3 
0.275 	 1.02139 	 4.41854 	 0.618686 	 0.025 	 3 
0.28 	 1.09158 	 4.41863 	 0.619213 	 0.02 	 3 
0.285 	 1.22336 	 4.4187 	 0.619753 	 0.015 	 3 
0.29 	 1.51221 	 4.41877 	 0.620304 	 0.01 	 3 
0.295 	 2.43463 	 4.41882 	 0.620863 	 0.005 	 3 
0.3 	 -7.26625e+12 	 4.41886 	 0.623249 	 1.0788e-15 	 3 
0.305 	 -1.43454 	 4.41888 	 0.623989 	 0.005 	 3 
0.31 	 -0.512126 	 4.4189 	 0.624547 	 0.01 	 3 
0.315 	 -0.223274 	 4.41891 	 0.625098 	 0.015 	 3 
0.32 	 -0.0914976 	 4.4189 	 0.625638 	 0.02 	 3 
0.325 	 -0.0213098 	 4.41888 	 0.626164 	 0.025 	 3 
0.33 	 0.0191548 	 4.41886 	 0.626676 	 0.03 	 3 
0.335 	 0.0435021 	 4.41882 	 0.627172 	 0.035 	 3 
0.34 	 0.058449 	 4.41878 	 0.627652 	 0.04 	 3 
0.345 	 0.067635 	 4.41873 	 0.628116 	 0.045 	 3 
0.35 	 0.0731621 	 4.41866 	 0.628564 	 0.05 	 3 
0.355 	 0.0763019 	 4.4186 	 0.628999 	 0.055 	 3 
0.36 	 0.0778518 	 4.41852 	 0.629419 	 0.06 	 3 
0.365 	 0.0783269 	 4.41843 	 0.629827 	 0.065 	 3 
0.37 	 0.0780683 	 4.41834 	 0.630222 	 0.07 	 3 
0.375 	 0.0773071 	 4.41825 	 0.630605 	 0.075 	 3 
0.38 	 0.0762028 	 4.41814 	 0.630978 	 0.08 	 3 
0.385 	 0.0748675 	 4.41803 	 0.63134 	 0.085 	 3 
0.39 	 0.0733808 	 4.41791 	 0.631693 	 0.09 	 3 
0.395 	 0.0718002 	 4.41779 	 0.632036 	 0.095 	 3 
0.4 	 0.070167 	 4.41766 	 0.632371 	 0.1 	 3 
0.405 	 0.0685115 	 4.41753 	 0.632697 	 0.105 	 3 
0.41 	 0.0668555 	 4.41738 	 0.633016 	 0.11 	 3 
0.415 	 0.0652151 	 4.41724 	 0.633327 	 0.115 	 3 
0.42 	 0.0636016 	 4.41708 	 0.633631 	 0.12 	 3 
0.425 	 0.062023 	 4.41693 	 0.633928 	 0.125 	 3 
0.43 	 0.0604848 	 4.41676 	 0.634218 	 0.13 	 3 
0.435 	 0.0589907 	 4.41659 	 0.634502 	 0.135 	 3 
0.44 	 0.0575428 	 4.41642 	 0.63478 	 0.14 	 3 
0.445 	 0.0561422 	 4.41624 	 0.635052 	 0.145 	 3 
0.45 	 0.0547893 	 4.41605 	 0.635319 	 0.15 	 3 
0.455 	 0.0534838 	 4.41586 	 0.63558 	 0.155 	 3 
0.46 	 0.052225 	 4.41567 	 0.635835 	 0.16 	 3 
0.465 	 0.0510118 	 4.41547 	 0.636086 	 0.165 	 3 
0.47 	 0.0498429 	 4.41526 	 0.636332 	 0.17 	 3 
0.475 	 0.0487171 	 4.41505 	 0.636572 	 0.175 	 3 
0.48 	 0.0476328 	 4.41484 	 0.636808 	 0.18 	 3 
0.485 	 0.0465884 	 4.41462 	 0.63704 	 0.185 	 3 
0.49 	 0.0455824 	 4.4144 	 0.637267 	 0.19 	 3 
0.495 	 0.0446132 	 4.41417 	 0.63749 	 0.195 	 3 
0.5 	 0.0436793 	 4.41393 	 0.637709 	 0.2 	 3 
0.505 	 0.0427791 	 4.4137 	 0.637923 	 0.205 	 3 
0.51 	 0.0419113 	 4.41345 	 0.638134 	 0.21 	 3 
0.515 	 0.0410743 	 4.41321 	 0.638341 	 0.215 	 3 
0.52 	 0.0402667 	 4.41296 	 0.638544 	 0.22 	 3 
0.525 	 0.0394874 	 4.4127 	 0.638744 	 0.225 	 3 
0.53 	 0.0387349 	 4.41244 	 0.638939 	 0.23 	 3 
0.535 	 0.0380082 	 4.41218 	 0.639132 	 0.235 	 3 
0.54 	 0.037306 	 4.41191 	 0.639321 	 0.24 	 3 
0.545 	 0.0366272 	 4.41164 	 0.639506 	 0.245 	 3 
0.55 	 0.0359709 	 4.41136 	 0.639688 	 0.25 	 3 
0.555 	 0.035336 	 4.41108 	 0.639867 	 0.255 	 3 
0.56 	 0.0347215 	 4.4108 	 0.640043 	 0.26 	 3 
0.565 	 0.0341266 	 4.41051 	 0.640216 	 0.265 	 3 
0.57 	 0.0335505 	 4.41021 	 0.640386 	 0.27 	 3 
0.575 	 0.0329923 	 4.40992 	 0.640553 	 0.275 	 3 
0.58 	 0.0324512 	 4.40962 	 0.640717 	 0.28 	 3 
0.585 	 0.0319266 	 4.40931 	 0.640878 	 0.285 	 3 
0.59 	 0.0314176 	 4.409 	 0.641036 	 0.29 	 3 
0.595 	 0.0309238 	 4.40869 	 0.641192 	 0.295 	 3 
0.6 	 0.0304444 	 4.40837 	 0.641345 	 0.3 	 3 
0.605 	 0.0299789 	 4.40805 	 0.641495 	 0.305 	 3 
0.61 	 0.0295267 	 4.40773 	 0.641643 	 0.31 	 3 
0.615 	 0.0290872 	 4.4074 	 0.641788 	 0.315 	 3 
0.62 	 0.02866 	 4.40707 	 0.641931 	 0.32 	 3 
0.625 	 0.0282446 	 4.40674 	 0.642071 	 0.325 	 3 
0.63 	 0.0278404 	 4.4064 	 0.642209 	 0.33 	 3 
0.635 	 0.0274472 	 4.40606 	 0.642344 	 0.335 	 3 
0.64 	 0.0270644 	 4.40571 	 0.642477 	 0.34 	 3 
0.645 	 0.0266917 	 4.40536 	 0.642608 	 0.345 	 3 
0.65 	 0.0263286 	 4.40501 	 0.642736 	 0.35 	 3 
0.655 	 0.0259749 	 4.40465 	 0.642863 	 0.355 	 3 
0.66 	 0.0256301 	 4.40429 	 0.642987 	 0.36 	 3 
0.665 	 0.0252941 	 4.40393 	 0.643109 	 0.365 	 3 
0.67 	 0.0249663 	 4.40356 	 0.643229 	 0.37 	 3 
0.675 	 0.0246466 	 4.40319 	 0.643346 	 0.375 	 3 
0.68 	 0.0243347 	 4.40282 	 0.643462 	 0.38 	 3 
0.685 	 0.0240302 	 4.40244 	 0.643576 	 0.385 	 3 
0.69 	 0.023733 	 4.40206 	 0.643687 	 0.39 	 3 
0.695 	 0.0234428 	 4.40167 	 0.643797 	 0.395 	 3 
0.7 	 0.0231593 	 4.40128 	 0.643904 	 0.4 	 3 
0.705 	 0.0228823 	 4.40089 	 0.64401 	 0.405 	 3 
0.71 	 0.0226117 	 4.4005 	 0.644114 	 0.41 	 3 
0.715 	 0.0223471 	 4.4001 	 0.644216 	 0.415 	 3 
0.72 	 0.0220884 	 4.3997 	 0.644316 	 0.42 	 3 
0.725 	 0.0218355 	 4.39929 	 0.644415 	 0.425 	 3 
0.73 	 0.021588 	 4.39889 	 0.644511 	 0.43 	 3 
0.735 	 0.0213459 	 4.39848 	 0.644606 	 0.435 	 3 
0.74 	 0.021109 	 4.39806 	 0.644699 	 0.44 	 3 
0.745 	 0.0208771 	 4.39764 	 0.64479 	 0.445 	 3 
0.75 	 0.02065 	 4.39722 	 0.64488 	 0.45 	 3 
0.755 	 0.0204277 	 4.3968 	 0.644968 	 0.455 	 3 
0.76 	 0.0202099 	 4.39637 	 0.645054 	 0.46 	 3 
0.765 	 0.0199966 	 4.39594 	 0.645139 	 0.465 	 3 
0.77 	 0.0197875 	 4.39551 	 0.645222 	 0.47 	 3 
0.775 	 0.0195827 	 4.39507 	 0.645303 	 0.475 	 3 
0.78 	 0.0193819 	 4.39463 	 0.645383 	 0.48 	 3 
0.785 	 0.019185 	 4.39419 	 0.645461 	 0.485 	 3 
0.79 	 0.018992 	 4.39374 	 0.645538 	 0.49 	 3 
0.795 	 0.0188026 	 4.39329 	 0.645613 	 0.495 	 3 
0.8 	 0.0186169 	 4.39284 	 0.645687 	 0.5 	 3 
0.805 	 0.0184347 	 4.39238 	 0.645759 	 0.505 	 3 
0.81 	 0.0182559 	 4.39192 	 0.64583 	 0.51 	 3 
0.815 	 0.0180804 	 4.39146 	 0.645899 	 0.515 	 3 
0.82 	 0.0179081 	 4.391 	 0.645967 	 0.52 	 3 
0.825 	 0.017739 	 4.39053 	 0.646033 	 0.525 	 3 
0.83 	 0.0175729 	 4.39006 	 0.646098 	 0.53 	 3 
0.835 	 0.0174098 	 4.38959 	 0.646162 	 0.535 	 3 
0.84 	 0.0172496 	 4.38911 	 0.646224 	 0.54 	 3 
0.845 	 0.0170923 	 4.38863 	 0.646285 	 0.545 	 3 
0.85 	 0.0169376 	 4.38814 	 0.646345 	 0.55 	 3 
0.855 	 0.0167857 	 4.38766 	 0.646403 	 0.555 	 3 
0.86 	 0.0166363 	 4.38717 	 0.64646 	 0.56 	 3 
0.865 	 0.0164895 	 4.38668 	 0.646515 	 0.565 	 3 
0.87 	 0.0163452 	 4.38618 	 0.64657 	 0.57 	 3 
0.875 	 0.0162033 	 4.38568 	 0.646623 	 0.575 	 3 
0.88 	 0.0160637 	 4.38518 	 0.646675 	 0.58 	 3 
0.885 	 0.0159265 	 4.38468 	 0.646725 	 0.585 	 3 
0.89 	 0.0157915 	 4.38417 	 0.646774 	 0.59 	 3 
0.895 	 0.0156587 	 4.38366 	 0.646822 	 0.595 	 3 
0.9 	 0.015528 	 4.38315 	 0.646869 	 0.6 	 3 
0.905 	 0.0153994 	 4.38264 	 0.646915 	 0.605 	 3 
0.91 	 0.0152728 	 4.38212 	 0.646959 	 0.61 	 3 
0.915 	 0.0151482 	 4.3816 	 0.647003 	 0.615 	 3 
0.92 	 0.0150256 	 4.38107 	 0.647045 	 0.62 	 3 
0.925 	 0.0149049 	 4.38054 	 0.647086 	 0.625 	 3 
0.93 	 0.014786 	 4.38001 	 0.647126 	 0.63 	 3 
0.935 	 0.0146689 	 4.37948 	 0.647164 	 0.635 	 3 
0.94 	 0.0145537 	 4.37894 	 0.647202 	 0.64 	 3 
0.945 	 0.0144401 	 4.37841 	 0.647238 	 0.645 	 3 
0.95 	 0.0143282 	 4.37786 	 0.647274 	 0.65 	 3 
0.955 	 0.014218 	 4.37732 	 0.647308 	 0.655 	 3 
0.96 	 0.0141094 	 4.37677 	 0.647341 	 0.66 	 3 
0.965 	 0.0140024 	 4.37622 	 0.647373 	 0.665 	 3 
0.97 	 0.013897 	 4.37567 	 0.647405 	 0.67 	 3 
0.975 	 0.013793 	 4.37511 	 0.647435 	 0.675 	 3 
0.98 	 0.0136906 	 4.37456 	 0.647464 	 0.68 	 3 
0.985 	 0.0135896 	 4.37399 	 0.647492 	 0.685 	 3 
0.99 	 0.01349 	 4.37343 	 0.647519 	 0.69 	 3 
0.995 	 0.0133918 	 4.37286 	 0.647544 	 0.695 	 3 
1 	 0.013295 	 4.37229 	 0.647569 	 0.7 	 3 
1.005 	 0.0131995 	 4.37172 	 0.647593 	 0.705 	 3 
1.01 	 0.0131053 	 4.37115 	 0.647616 	 0.71 	 3 
1.015 	 0.0130124 	 4.37057 	 0.647638 	 0.715 	 3 
1.02 	 0.0129207 	 4.36999 	 0.647659 	 0.72 	 3 
1.025 	 0.0128303 	 4.3694 	 0.647679 	 0.725 	 3 
1.03 	 0.0127411 	 4.36882 	 0.647699 	 0.73 	 3 
1.035 	 0.0126531 	 4.36823 	 0.647717 	 0.735 	 3 
1.04 	 0.0125662 	 4.36764 	 0.647734 	 0.74 	 3 
1.045 	 0.0124805 	 4.36704 	 0.64775 	 0.745 	 3 
1.05 	 0.0123959 	 4.36644 	 0.647766 	 0.75 	 3 
1.055 	 0.0123124 	 4.36584 	 0.64778 	 0.755 	 3 
1.06 	 0.0122299 	 4.36524 	 0.647794 	 0.76 	 3 
1.065 	 0.0121485 	 4.36463 	 0.647806 	 0.765 	 3 
1.07 	 0.0120681 	 4.36403 	 0.647818 	 0.77 	 3 
1.075 	 0.0119888 	 4.36341 	 0.647829 	 0.775 	 3 
1.08 	 0.0119104 	 4.3628 	 0.647839 	 0.78 	 3 
1.085 	 0.011833 	 4.36218 	 0.647848 	 0.785 	 3 
1.09 	 0.0117566 	 4.36156 	 0.647857 	 0.79 	 3 
1.095 	 0.0116811 	 4.36094 	 0.647864 	 0.795 	 3 
1.1 	 0.0116065 	 4.36032 	 0.647871 	 0.8 	 3 
1.105 	 0.0115328 	 4.35969 	 0.647877 	 0.805 	 3 
1.11 	 0.01146 	 4.35906 	 0.647882 	 0.81 	 3 
1.115 	 0.0113881 	 4.35843 	 0.647886 	 0.815 	 3 
1.12 	 0.0113171 	 4.35779 	 0.647889 	 0.82 	 3 
1.125 	 0.0112469 	 4.35715 	 0.647892 	 0.825 	 3 
1.13 	 0.0111775 	 4.35651 	 0.647894 	 0.83 	 3 
1.135 	 0.0111089 	 4.35587 	 0.647894 	 0.835 	 3 
1.14 	 0.0110411 	 4.35522 	 0.647895 	 0.84 	 3 
1.145 	 0.0109741 	 4.35457 	 0.647894 	 0.845 	 3 
1.15 	 0.0109079 	 4.35392 	 0.647893 	 0.85 	 3 
1.155 	 0.0108424 	 4.35327 	 0.64789 	 0.855 	 3 
1.16 	 0.0107777 	 4.35261 	 0.647887 	 0.86 	 3 
1.165 	 0.0107137 	 4.35195 	 0.647884 	 0.865 	 3 
1.17 	 0.0106504 	 4.35129 	 0.647879 	 0.87 	 3 
1.175 	 0.0105879 	 4.35062 	 0.647874 	 0.875 	 3 
1.18 	 0.010526 	 4.34995 	 0.647868 	 0.88 	 3 
1.185 	 0.0104648 	 4.34928 	 0.647861 	 0.885 	 3 
1.19 	 0.0104039 	 4.34862 	 0.647852 	 0.89 	 4 
1.195 	 0.0103441 	 4.34795 	 0.647844 	 0.895 	 4 
1.2 	 0.0102849 	 4.34727 	 0.647835 	 0.9 	 4 
1.205 	 0.0102263 	 4.34659 	 0.647825 	 0.905 	 4 
1.21 	 0.0101684 	 4.34591 	 0.647815 	 0.91 	 4 
1.215 	 0.010111 	 4.34522 	 0.647804 	 0.915 	 4 
1.22 	 0.0100543 	 4.34453 	 0.647792 	 0.92 	 4 
1.225 	 0.00999824 	 4.34384 	 0.64778 	 0.925 	 4 
1.23 	 0.00994273 	 4.34315 	 0.647766 	 0.93 	 4 
1.235 	 0.0098878 	 4.34245 	 0.647753 	 0.935 	 4 
1.24 	 0.00983344 	 4.34175 	 0.647738 	 0.94 	 4 
1.245 	 0.00977964 	 4.34105 	 0.647723 	 0.945 	 4 
1.25 	 0.0097264 	 4.34034 	 0.647707 	 0.95 	 4 
1.255 	 0.0096737 	 4.33964 	 0.647691 	 0.955 	 4 
1.26 	 0.00962154 	 4.33893 	 0.647674 	 0.96 	 4 
1.265 	 0.00956991 	 4.33821 	 0.647656 	 0.965 	 4 
1.27 	 0.00951881 	 4.3375 	 0.647637 	 0.97 	 4 
1.275 	 0.00946821 	 4.33678 	 0.647618 	 0.975 	 4 
1.28 	 0.00941812 	 4.33606 	 0.647599 	 0.98 	 4 
1.285 	 0.00936853 	 4.33534 	 0.647578 	 0.985 	 4 
1.29 	 0.00931943 	 4.33461 	 0.647557 	 0.99 	 4 
1.295 	 0.00927081 	 4.33388 	 0.647535 	 0.995 	 4 
1.3 	 0.00922267 	 4.33315 	 0.647513 	 1 	 4 
1.305 	 0.009175 	 4.33242 	 0.64749 	 1.005 	 4 
1.31 	 0.00912779 	 4.33168 	 0.647467 	 1.01 	 4 
1.315 	 0.00908104 	 4.33094 	 0.647443 	 1.015 	 4 
1.32 	 0.00903473 	 4.3302 	 0.647418 	 1.02 	 4 
1.325 	 0.00898887 	 4.32946 	 0.647393 	 1.025 	 4 
1.33 	 0.00894344 	 4.32871 	 0.647367 	 1.03 	 4 
1.335 	 0.00889845 	 4.32796 	 0.64734 	 1.035 	 4 
1.34 	 0.00885388 	 4.32721 	 0.647313 	 1.04 	 4 
1.345 	 0.00880972 	 4.32646 	 0.647286 	 1.045 	 4 
1.35 	 0.00876598 	 4.3257 	 0.647257 	 1.05 	 4 
1.355 	 0.00872264 	 4.32494 	 0.647229 	 1.055 	 4 
1.36 	 0.00867971 	 4.32418 	 0.647199 	 1.06 	 4 
1.365 	 0.00863717 	 4.32341 	 0.647169 	 1.065 	 4 
1.37 	 0.00859502 	 4.32265 	 0.647139 	 1.07 	 4 
1.375 	 0.00855325 	 4.32188 	 0.647108 	 1.075 	 4 
1.38 	 0.00851186 	 4.3211 	 0.647076 	 1.08 	 4 
1.385 	 0.00847085 	 4.32033 	 0.647044 	 1.085 	 4 
1.39 	 0.0084302 	 4.31955 	 0.647011 	 1.09 	 4 
1.395 	 0.00838992 	 4.31877 	 0.646978 	 1.095 	 4 
1.4 	 0.00835 	 4.31799 	 0.646944 	 1.1 	 4 
1.405 	 0.00831043 	 4.3172 	 0.646909 	 1.105 	 4 
1.41 	 0.00827121 	 4.31641 	 0.646874 	 1.11 	 4 
1.415 	 0.00823234 	 4.31562 	 0.646839 	 1.115 	 4 
1.42 	 0.0081938 	 4.31483 	 0.646803 	 1.12 	 4 
1.425 	 0.0081556 	 4.31403 	 0.646766 	 1.125 	 4 
1.43 	 0.00811773 	 4.31324 	 0.646729 	 1.13 	 4 
1.435 	 0.00808019 	 4.31243 	 0.646692 	 1.135 	 4 
1.44 	 0.00804297 	 4.31163 	 0.646654 	 1.14 	 4 
1.445 	 0.00800607 	 4.31082 	 0.646615 	 1.145 	 4 
1.45 	 0.00796949 	 4.31002 	 0.646576 	 1.15 	 4 
1.455 	 0.00793321 	 4.3092 	 0.646537 	 1.155 	 4 
1.46 	 0.00789724 	 4.30839 	 0.646496 	 1.16 	 4 
1.465 	 0.00786158 	 4.30757 	 0.646456 	 1.165 	 4 
1.47 	 0.00782621 	 4.30675 	 0.646415 	 1.17 	 4 
1.475 	 0.00779114 	 4.30593 	 0.646373 	 1.175 	 4 
1.48 	 0.00775635 	 4.30511 	 0.646331 	 1.18 	 4 
1.485 	 0.00772186 	 4.30428 	 0.646289 	 1.185 	 4 
1.49 	 0.00768765 	 4.30345 	 0.646246 	 1.19 	 4 
1.495 	 0.00765372 	 4.30262 	 0.646202 	 1.195 	 4 
1.5 	 0.00762007 	 4.30179 	 0.646158 	 1.2 	 4 
1.505 	 0.00758669 	 4.30095 	 0.646114 	 1.205 	 4 
1.51 	 0.00755358 	 4.30011 	 0.646069 	 1.21 	 4 
1.515 	 0.00752074 	 4.29927 	 0.646023 	 1.215 	 4 
1.52 	 0.00748816 	 4.29842 	 0.645977 	 1.22 	 4 
1.525 	 0.00745584 	 4.29757 	 0.645931 	 1.225 	 4 
1.53 	 0.00742378 	 4.29672 	 0.645884 	 1.23 	 4 
1.535 	 0.00739197 	 4.29587 	 0.645837 	 1.235 	 4 
1.54 	 0.00736041 	 4.29502 	 0.645789 	 1.24 	 4 
1.545 	 0.00732911 	 4.29416 	 0.645741 	 1.245 	 4 
1.55 	 0.00729805 	 4.2933 	 0.645693 	 1.25 	 4 
1.555 	 0.00726723 	 4.29244 	 0.645644 	 1.255 	 4 
1.56 	 0.00723664 	 4.29157 	 0.645594 	 1.26 	 4 
1.565 	 0.0072063 	 4.2907 	 0.645544 	 1.265 	 4 
1.57 	 0.00717619 	 4.28983 	 0.645494 	 1.27 	 4 
1.575 	 0.00714631 	 4.28896 	 0.645443 	 1.275 	 4 
1.58 	 0.00711666 	 4.28808 	 0.645392 	 1.28 	 4 
1.585 	 0.00708724 	 4.2872 	 0.64534 	 1.285 	 4 
1.59 	 0.00705804 	 4.28632 	 0.645288 	 1.29 	 4 
1.595 	 0.00702906 	 4.28544 	 0.645236 	 1.295 	 4 
1.6 	 0.0070003 	 4.28455 	 0.645183 	 1.3 	 4 
1.605 	 0.00697175 	 4.28367 	 0.64513 	 1.305 	 4 
1.61 	 0.00694342 	 4.28278 	 0.645076 	 1.31 	 4 
1.615 	 0.00691529 	 4.28188 	 0.645022 	 1.315 	 4 
1.62 	 0.00688738 	 4.28099 	 0.644967 	 1.32 	 4 
1.625 	 0.00685967 	 4.28009 	 0.644912 	 1.325 	 4 
1.63 	 0.00683217 	 4.27919 	 0.644857 	 1.33 	 4 
1.635 	 0.00680487 	 4.27828 	 0.644801 	 1.335 	 4 
1.64 	 0.00677776 	 4.27737 	 0.644745 	 1.34 	 4 
1.645 	 0.00675086 	 4.27647 	 0.644688 	 1.345 	 4 
1.65 	 0.00672415 	 4.27555 	 0.644631 	 1.35 	 4 
1.655 	 0.00669763 	 4.27464 	 0.644574 	 1.355 	 4 
1.66 	 0.0066713 	 4.27372 	 0.644516 	 1.36 	 4 
1.665 	 0.00664516 	 4.2728 	 0.644458 	 1.365 	 4 
1.67 	 0.00661921 	 4.27188 	 0.6444 	 1.37 	 4 
1.675 	 0.00659344 	 4.27096 	 0.644341 	 1.375 	 4 
1.68 	 0.00656786 	 4.27003 	 0.644281 	 1.38 	 4 
1.685 	 0.00654245 	 4.2691 	 0.644222 	 1.385 	 4 
1.69 	 0.00651722 	 4.26817 	 0.644162 	 1.39 	 4 
1.695 	 0.00649218 	 4.26723 	 0.644101 	 1.395 	 4 
1.7 	 0.0064673 	 4.2663 	 0.644041 	 1.4 	 4 
1.705 	 0.0064426 	 4.26536 	 0.643979 	 1.405 	 4 
1.71 	 0.00641807 	 4.26441 	 0.643918 	 1.41 	 4 
1.715 	 0.00639371 	 4.26347 	 0.643856 	 1.415 	 4 
1.72 	 0.00636952 	 4.26252 	 0.643794 	 1.42 	 4 
1.725 	 0.00634549 	 4.26157 	 0.643731 	 1.425 	 4 
1.73 	 0.00632163 	 4.26062 	 0.643668 	 1.43 	 4 
1.735 	 0.00629793 	 4.25966 	 0.643605 	 1.435 	 4 
1.74 	 0.00627439 	 4.25871 	 0.643541 	 1.44 	 4 
1.745 	 0.00625101 	 4.25775 	 0.643477 	 1.445 	 4 
1.75 	 0.00622778 	 4.25678 	 0.643413 	 1.45 	 4 
1.755 	 0.00620472 	 4.25582 	 0.643348 	 1.455 	 4 
1.76 	 0.0061818 	 4.25485 	 0.643283 	 1.46 	 4 
1.765 	 0.00615904 	 4.25388 	 0.643218 	 1.465 	 4 
1.77 	 0.00613643 	 4.25291 	 0.643152 	 1.47 	 4 
1.775 	 0.00611397 	 4.25193 	 0.643086 	 1.475 	 4 
1.78 	 0.00609166 	 4.25095 	 0.643019 	 1.48 	 4 
1.785 	 0.0060695 	 4.24997 	 0.642953 	 1.485 	 4 
1.79 	 0.00604748 	 4.24899 	 0.642885 	 1.49 	 4 
1.795 	 0.0060256 	 4.248 	 0.642818 	 1.495 	 4 
1.8 	 0.00600387 	 4.24701 	 0.64275 	 1.5 	 4 
1.805 	 0.00598228 	 4.24602 	 0.642682 	 1.505 	 4 
1.81 	 0.00596083 	 4.24503 	 0.642614 	 1.51 	 4 
1.815 	 0.00593951 	 4.24403 	 0.642545 	 1.515 	 4 
1.82 	 0.00591833 	 4.24303 	 0.642476 	 1.52 	 4 
1.825 	 0.00589729 	 4.24203 	 0.642407 	 1.525 	 4 
1.83 	 0.00587638 	 4.24103 	 0.642337 	 1.53 	 4 
1.835 	 0.00585561 	 4.24002 	 0.642267 	 1.535 	 4 
1.84 	 0.00583496 	 4.23901 	 0.642197 	 1.54 	 4 
1.845 	 0.00581445 	 4.238 	 0.642126 	 1.545 	 4 
1.85 	 0.00579406 	 4.23699 	 0.642055 	 1.55 	 4 
1.855 	 0.00577381 	 4.23597 	 0.641984 	 1.555 	 4 
1.86 	 0.00575368 	 4.23495 	 0.641912 	 1.56 	 4 
1.865 	 0.00573367 	 4.23393 	 0.64184 	 1.565 	 4 
1.87 	 0.00571379 	 4.23291 	 0.641768 	 1.57 	 4 
1.875 	 0.00569403 	 4.23188 	 0.641696 	 1.575 	 4 
1.88 	 0.0056744 	 4.23085 	 0.641623 	 1.58 	 4 
1.885 	 0.00565488 	 4.22982 	 0.64155 	 1.585 	 4 
1.89 	 0.00563549 	 4.22878 	 0.641477 	 1.59 	 4 
1.895 	 0.00561621 	 4.22774 	 0.641403 	 1.595 	 4 
1.9 	 0.00559705 	 4.2267 	 0.641329 	 1.6 	 4 
1.905 	 0.00557801 	 4.22566 	 0.641255 	 1.605 	 4 
1.91 	 0.00555908 	 4.22462 	 0.64118 	 1.61 	 4 
1.915 	 0.00554027 	 4.22357 	 0.641105 	 1.615 	 4 
1.92 	 0.00552156 	 4.22252 	 0.64103 	 1.62 	 4 
1.925 	 0.00550298 	 4.22147 	 0.640955 	 1.625 	 4 
1.93 	 0.0054845 	 4.22041 	 0.640879 	 1.63 	 4 
1.935 	 0.00546613 	 4.21935 	 0.640803 	 1.635 	 4 
1.94 	 0.00544787 	 4.21829 	 0.640727 	 1.64 	 4 
1.945 	 0.00542972 	 4.21723 	 0.64065 	 1.645 	 4 
1.95 	 0.00541168 	 4.21617 	 0.640574 	 1.65 	 4 
1.955 	 0.00539374 	 4.2151 	 0.640497 	 1.655 	 4 
1.96 	 0.0053759 	 4.21403 	 0.640419 	 1.66 	 4 
1.965 	 0.00535818 	 4.21295 	 0.640342 	 1.665 	 4 
1.97 	 0.00534055 	 4.21188 	 0.640264 	 1.67 	 4 
1.975 	 0.00532303 	 4.2108 	 0.640186 	 1.675 	 4 
1.98 	 0.00530561 	 4.20972 	 0.640107 	 1.68 	 4 
1.985 	 0.00528828 	 4.20864 	 0.640029 	 1.685 	 4 
1.99 	 0.00527106 	 4.20755 	 0.63995 	 1.69 	 4 
1.995 	 0.00525394 	 4.20646 	 0.63987 	 1.695 	 4 
2 	 0.00523692 	 4.20537 	 0.639791 	 1.7 	 4 
2.005 	 0.00521999 	 4.20428 	 0.639711 	 1.705 	 4 
2.01 	 0.00520316 	 4.20318 	 0.639631 	 1.71 	 4 
2.015 	 0.00518642 	 4.20208 	 0.639551 	 1.715 	 4 
2.02 	 0.00516978 	 4.20098 	 0.639471 	 1.72 	 4 
2.025 	 0.00515323 	 4.19988 	 0.63939 	 1.725 	 4 
2.03 	 0.00513677 	 4.19877 	 0.639309 	 1.73 	 4 
2.035 	 0.00512041 	 4.19766 	 0.639228 	 1.735 	 4 
2.04 	 0.00510414 	 4.19655 	 0.639146 	 1.74 	 4 
2.045 	 0.00508796 	 4.19544 	 0.639064 	 1.745 	 4 
2.05 	 0.00507187 	 4.19432 	 0.638982 	 1.75 	 4 
2.055 	 0.00505586 	 4.1932 	 0.6389 	 1.755 	 4 
2.06 	 0.00503995 	 4.19208 	 0.638818 	 1.76 	 4 
2.065 	 0.00502412 	 4.19095 	 0.638735 	 1.765 	 4 
2.07 	 0.00500838 	 4.18983 	 0.638652 	 1.77 	 4 
2.075 	 0.00499273 	 4.1887 	 0.638569 	 1.775 	 4 
2.08 	 0.00497716 	 4.18757 	 0.638485 	 1.78 	 4 
2.085 	 0.00496168 	 4.18643 	 0.638402 	 1.785 	 4 
2.09 	 0.00494627 	 4.18529 	 0.638318 	 1.79 	 4 
2.095 	 0.00493096 	 4.18415 	 0.638234 	 1.795 	 4 
2.1 	 0.00491572 	 4.18301 	 0.638149 	 1.8 	 4 
2.105 	 0.00490057 	 4.18187 	 0.638065 	 1.805 	 4 
2.11 	 0.0048855 	 4.18072 	 0.63798 	 1.81 	 4 
2.115 	 0.00487051 	 4.17957 	 0.637895 	 1.815 	 4 
2.12 	 0.0048556 	 4.17842 	 0.63781 	 1.82 	 4 
2.125 	 0.00484076 	 4.17726 	 0.637724 	 1.825 	 4 
2.13 	 0.00482601 	 4.1761 	 0.637638 	 1.83 	 4 
2.135 	 0.00481133 	 4.17494 	 0.637553 	 1.835 	 4 
2.14 	 0.00479673 	 4.17378 	 0.637466 	 1.84 	 4 
2.145 	 0.00478221 	 4.17261 	 0.63738 	 1.845 	 4 
2.15 	 0.00476777 	 4.17145 	 0.637293 	 1.85 	 4 
2.155 	 0.0047534 	 4.17028 	 0.637207 	 1.855 	 4 
2.16 	 0.0047391 	 4.1691 	 0.63712 	 1.86 	 4 
2.165 	 0.00472488 	 4.16793 	 0.637032 	 1.865 	 4 
2.17 	 0.00471073 	 4.16675 	 0.636945 	 1.87 	 4 
2.175 	 0.00469666 	 4.16557 	 0.636857 	 1.875 	 4 
2.18 	 0.00468265 	 4.16438 	 0.636769 	 1.88 	 4 
2.185 	 0.00466872 	 4.1632 	 0.636681 	 1.885 	 4 
2.19 	 0.00465486 	 4.16201 	 0.636593 	 1.89 	 4 
2.195 	 0.00464107 	 4.16082 	 0.636504 	 1.895 	 4 
2.2 	 0.00462735 	 4.15963 	 0.636416 	 1.9 	 4 
2.205 	 0.0046137 	 4.15843 	 0.636327 	 1.905 	 4 
2.21 	 0.00460012 	 4.15723 	 0.636238 	 1.91 	 4 
2.215 	 0.00458661 	 4.15603 	 0.636148 	 1.915 	 4 
2.22 	 0.00457317 	 4.15482 	 0.636059 	 1.92 	 4 
2.225 	 0.00455979 	 4.15362 	 0.635969 	 1.925 	 4 
2.23 	 0.00454648 	 4.15241 	 0.635879 	 1.93 	 4 
2.235 	 0.00453324 	 4.1512 	 0.635789 	 1.935 	 4 
2.24 	 0.00452006 	 4.14998 	 0.635699 	 1.94 	 4 
2.245 	 0.00450695 	 4.14877 	 0.635608 	 1.945 	 4 
2.25 	 0.00449391 	 4.14755 	 0.635517 	 1.95 	 4 
2.255 	 0.00448092 	 4.14633 	 0.635427 	 1.955 	 4 
2.26 	 0.00446801 	 4.1451 	 0.635335 	 1.96 	 4 
2.265 	 0.00445515 	 4.14387 	 0.635244 	 1.965 	 4 
2.27 	 0.00444236 	 4.14264 	 0.635153 	 1.97 	 4 
2.275 	 0.00442963 	 4.14141 	 0.635061 	 1.975 	 4 
2.28 	 0.00441696 	 4.14018 	 0.634969 	 1.98 	 4 
2.285 	 0.00440436 	 4.13894 	 0.634877 	 1.985 	 4 
2.29 	 0.00439181 	 4.1377 	 0.634785 	 1.99 	 4 
2.295 	 0.00437933 	 4.13646 	 0.634693 	 1.995 	 4 
2.3 	 0.00436691 	 4.13521 	 0.6346 	 2 	 4 
2.305 	 0.00435454 	 4.13396 	 0.634507 	 2.005 	 4 
2.31 	 0.00434224 	 4.13271 	 0.634414 	 2.01 	 4 
2.315 	 0.00432999 	 4.13146 	 0.634321 	 2.015 	 4 
2.32 	 0.0043178 	 4.13021 	 0.634228 	 2.02 	 4 
2.325 	 0.00430567 	 4.12895 	 0.634134 	 2.025 	 4 
2.33 	 0.0042936 	 4.12769 	 0.634041 	 2.03 	 4 
2.335 	 0.00428159 	 4.12643 	 0.633947 	 2.035 	 4 
2.34 	 0.00426963 	 4.12516 	 0.633853 	 2.04 	 4 
2.345 	 0.00425772 	 4.12389 	 0.633759 	 2.045 	 4 
2.35 	 0.00424588 	 4.12262 	 0.633664 	 2.05 	 4 
2.355 	 0.00423409 	 4.12135 	 0.63357 	 2.055 	 4 
2.36 	 0.00422235 	 4.12007 	 0.633475 	 2.06 	 4 
2.365 	 0.00421067 	 4.11879 	 0.63338 	 2.065 	 4 
2.37 	 0.00419904 	 4.11751 	 0.633285 	 2.07 	 4 
2.375 	 0.00418747 	 4.11623 	 0.63319 	 2.075 	 4 
2.38 	 0.00417595 	 4.11494 	 0.633095 	 2.08 	 4 
2.385 	 0.00416449 	 4.11365 	 0.632999 	 2.085 	 4 
2.39 	 0.00415307 	 4.11236 	 0.632904 	 2.09 	 4 
2.395 	 0.00414171 	 4.11107 	 0.632808 	 2.095 	 4 
2.4 	 0.0041304 	 4.10977 	 0.632712 	 2.1 	 4 
2.405 	 0.00411914 	 4.10847 	 0.632616 	 2.105 	 4 
2.41 	 0.00410794 	 4.10717 	 0.632519 	 2.11 	 4 
2.415 	 0.00409678 	 4.10587 	 0.632423 	 2.115 	 4 
2.42 	 0.00408568 	 4.10456 	 0.632326 	 2.12 	 4 
2.425 	 0.00407462 	 4.10325 	 0.632229 	 2.125 	 4 
2.43 	 0.00406362 	 4.10194 	 0.632132 	 2.13 	 4 
2.435 	 0.00405266 	 4.10063 	 0.632035 	 2.135 	 4 
2.44 	 0.00404176 	 4.09931 	 0.631938 	 2.13998 	 4 
2.445 	 0.00403084 	 4.09801 	 0.63184 	 2.1449 	 5 
2.45 	 0.00402003 	 4.09669 	 0.631743 	 2.14975 	 5 
2.455 	 0.00400926 	 4.09537 	 0.631645 	 2.15454 	 5 
2.46 	 0.00399855 	 4.09404 	 0.631547 	 2.15927 	 5 
2.465 	 0.00398788 	 4.09271 	 0.631449 	 2.16394 	 5 
2.47 	 0.00397726 	 4.09138 	 0.631351 	 2.16855 	 5 
2.475 	 0.00396669 	 4.09004 	 0.631253 	 2.17311 	 5 
2.48 	 0.00395617 	 4.08871 	 0.631154 	 2.1776 	 5 
2.485 	 0.00394569 	 4.08737 	 0.631056 	 2.18203 	 5 
2.49 	 0.00393525 	 4.08602 	 0.630957 	 2.18643 	 5 
2.495 	 0.00392486 	 4.08468 	 0.630858 	 2.19074 	 5 
2.5 	 0.00391452 	 4.08333 	 0.630759 	 2.19502 	 5 
2.505 	 0.00390422 	 4.08198 	 0.63066 	 2.19924 	 5 
2.51 	 0.00389397 	 4.08063 	 0.630561 	 2.2034 	 5 
2.515 	 0.00388376 	 4.07928 	 0.630461 	 2.20752 	 5 
2.52 	 0.00387359 	 4.07792 	 0.630362 	 2.21157 	 5 
2.525 	 0.00386347 	 4.07656 	 0.630262 	 2.21559 	 5 
2.53 	 0.00385339 	 4.0752 	 0.630162 	 2.21955 	 5 
2.535 	 0.00384336 	 4.07383 	 0.630062 	 2.22345 	 5 
2.54 	 0.00383336 	 4.07246 	 0.629962 	 2.22734 	 5 
2.545 	 0.00382341 	 4.07109 	 0.629862 	 2.23113 	 5 
2.55 	 0.00381351 	 4.06972 	 0.629761 	 2.23491 	 5 
2.555 	 0.00380364 	 4.06834 	 0.629661 	 2.23862 	 5 
2.56 	 0.00379382 	 4.06697 	 0.62956 	 2.24229 	 5 
2.565 	 0.00378403 	 4.06559 	 0.629459 	 2.24595 	 5 
2.57 	 0.00377429 	 4.0642 	 0.629358 	 2.2495 	 5 
2.575 	 0.00376459 	 4.06282 	 0.629257 	 2.25305 	 5 
2.58 	 0.00375493 	 4.06143 	 0.629156 	 2.25656 	 5 
2.585 	 0.00374531 	 4.06004 	 0.629055 	 2.25998 	 5 
2.59 	 0.00373573 	 4.05865 	 0.628954 	 2.26341 	 5 
2.595 	 0.00372619 	 4.05725 	 0.628852 	 2.26679 	 5 
2.6 	 0.00371669 	 4.05585 	 0.62875 	 2.27008 	 5 
2.605 	 0.00370723 	 4.05445 	 0.628649 	 2.27338 	 5 
2.61 	 0.00369781 	 4.05305 	 0.628547 	 2.27666 	 5 
2.615 	 0.00368843 	 4.05164 	 0.628445 	 2.27982 	 5 
2.62 	 0.00367908 	 4.05023 	 0.628342 	 2.28299 	 5 
2.625 	 0.00366978 	 4.04882 	 0.62824 	 2.28616 	 5 
2.63 	 0.00366051 	 4.04741 	 0.628138 	 2.28921 	 5 
2.635 	 0.00365128 	 4.04599 	 0.628035 	 2.29224 	 5 
2.64 	 0.00364209 	 4.04457 	 0.627933 	 2.29528 	 5 
2.645 	 0.00363293 	 4.04315 	 0.62783 	 2.29827 	 5 
2.65 	 0.00362382 	 4.04173 	 0.627727 	 2.30117 	 5 
2.655 	 0.00361473 	 4.0403 	 0.627624 	 2.30406 	 5 
2.66 	 0.00360569 	 4.03887 	 0.627521 	 2.30697 	 5 
2.665 	 0.00359668 	 4.03744 	 0.627418 	 2.30979 	 5 
2.67 	 0.00358771 	 4.03601 	 0.627314 	 2.31255 	 5 
2.675 	 0.00357877 	 4.03457 	 0.627211 	 2.31531 	 5 
2.68 	 0.00356987 	 4.03313 	 0.627107 	 2.31808 	 5 
2.685 	 0.00356101 	 4.03169 	 0.627004 	 2.32076 	 5 
2.69 	 0.00355218 	 4.03025 	 0.6269 	 2.32338 	 5 
2.695 	 0.00354338 	 4.0288 	 0.626796 	 2.32601 	 5 
2.7 	 0.00353462 	 4.02735 	 0.626692 	 2.32863 	 5 
2.705 	 0.0035259 	 4.0259 	 0.626588 	 2.33122 	 5 
2.71 	 0.00351721 	 4.02445 	 0.626484 	 2.3337 	 5 
2.715 	 0.00350855 	 4.02299 	 0.626379 	 2.33618 	 5 
2.72 	 0.00349993 	 4.02153 	 0.626275 	 2.33866 	 5 
2.725 	 0.00349134 	 4.02007 	 0.626171 	 2.34115 	 5 
2.73 	 0.00348278 	 4.0186 	 0.626066 	 2.34352 	 5 
2.735 	 0.00347426 	 4.01714 	 0.625961 	 2.34586 	 5 
2.74 	 0.00346577 	 4.01567 	 0.625856 	 2.3482 	 5 
2.745 	 0.00345732 	 4.0142 	 0.625751 	 2.35054 	 5 
2.75 	 0.0034489 	 4.01272 	 0.625646 	 2.35288 	 5 
2.755 	 0.0034405 	 4.01124 	 0.625541 	 2.35508 	 5 
2.76 	 0.00343215 	 4.00977 	 0.625436 	 2.35727 	 5 
2.765 	 0.00342382 	 4.00828 	 0.625331 	 2.35948 	 5 
2.77 	 0.00341553 	 4.0068 	 0.625225 	 2.36168 	 5 
2.775 	 0.00340726 	 4.00531 	 0.62512 	 2.36388 	 5 
2.78 	 0.00339903 	 4.00382 	 0.625014 	 2.36593 	 5 
2.785 	 0.00339083 	 4.00233 	 0.624909 	 2.36799 	 5 
2.79 	 0.00338267 	 4.00083 	 0.624803 	 2.37005 	 5 
2.795 	 0.00337453 	 3.99934 	 0.624697 	 2.37211 	 5 
2.8 	 0.00336642 	 3.99784 	 0.624591 	 2.37417 	 5 
2.805 	 0.00335835 	 3.99634 	 0.624485 	 2.37613 	 5 
2.81 	 0.0033503 	 3.99483 	 0.624379 	 2.37804 	 5 
2.815 	 0.00334229 	 3.99332 	 0.624272 	 2.37995 	 5 
2.82 	 0.0033343 	 3.99181 	 0.624166 	 2.38187 	 5 
2.825 	 0.00332635 	 3.9903 	 0.62406 	 2.38379 	 5 
2.83 	 0.00331842 	 3.98879 	 0.623953 	 2.3857 	 5 
2.835 	 0.00331053 	 3.98727 	 0.623847 	 2.38747 	 5 
2.84 	 0.00330266 	 3.98575 	 0.62374 	 2.38924 	 5 
2.845 	 0.00329482 	 3.98423 	 0.623633 	 2.39101 	 5 
2.85 	 0.00328701 	 3.9827 	 0.623526 	 2.39278 	 5 
2.855 	 0.00327924 	 3.98117 	 0.623419 	 2.39456 	 5 
2.86 	 0.00327149 	 3.97964 	 0.623312 	 2.39633 	 5 
2.865 	 0.00326376 	 3.97811 	 0.623205 	 2.39795 	 5 
2.87 	 0.00325607 	 3.97658 	 0.623098 	 2.39958 	 5 
2.875 	 0.0032484 	 3.97504 	 0.622991 	 2.40121 	 5 
2.88 	 0.00324077 	 3.9735 	 0.622883 	 2.40284 	 5 
2.885 	 0.00323316 	 3.97196 	 0.622776 	 2.40447 	 5 
2.89 	 0.00322558 	 3.97041 	 0.622668 	 2.40611 	 5 
2.895 	 0.00321802 	 3.96886 	 0.622561 	 2.40764 	 5 
2.9 	 0.0032105 	 3.96731 	 0.622453 	 2.40912 	 5 
2.905 	 0.003203 	 3.96576 	 0.622345 	 2.4106 	 5 
2.91 	 0.00319552 	 3.9642 	 0.622237 	 2.41209 	 5 
2.915 	 0.00318808 	 3.96265 	 0.622129 	 2.41358 	 5 
2.92 	 0.00318066 	 3.96109 	 0.622021 	 2.41507 	 5 
2.925 	 0.00317327 	 3.95953 	 0.621913 	 2.41656 	 5 
2.93 	 0.0031659 	 3.95796 	 0.621805 	 2.41792 	 5 
2.935 	 0.00315856 	 3.95639 	 0.621697 	 2.41925 	 5 
2.94 	 0.00315125 	 3.95482 	 0.621589 	 2.4206 	 5 
2.945 	 0.00314396 	 3.95325 	 0.62148 	 2.42194 	 5 
2.95 	 0.0031367 	 3.95168 	 0.621372 	 2.42329 	 5 
2.955 	 0.00312947 	 3.9501 	 0.621263 	 2.42463 	 5 
2.96 	 0.00312226 	 3.94852 	 0.621155 	 2.42599 	 5 
2.965 	 0.00311507 	 3.94694 	 0.621046 	 2.42723 	 5 
2.97 	 0.00310791 	 3.94536 	 0.620937 	 2.42842 	 5 
2.975 	 0.00310078 	 3.94377 	 0.620829 	 2.42962 	 5 
2.98 	 0.00309367 	 3.94218 	 0.62072 	 2.43082 	 5 
2.985 	 0.00308659 	 3.94059 	 0.620611 	 2.43202 	 5 
2.99 	 0.00307953 	 3.93899 	 0.620502 	 2.43323 	 5 
2.995 	 0.00307249 	 3.9374 	 0.620393 	 2.43444 	 5 
3 	 0.00306548 	 3.9358 	 0.620284 	 2.43564 	 5 
