t2 	 CS1 	 Deltamax 	 Nmu/N 	 Emin 	 check 
-1 	 0.996295 	 1.67666 	 0.674121 	 0.7 	 8 
-0.995 	 0.996274 	 1.67862 	 0.674068 	 0.705 	 8 
-0.99 	 0.996253 	 1.68059 	 0.674013 	 0.71 	 8 
-0.985 	 0.996232 	 1.68255 	 0.673956 	 0.715 	 8 
-0.98 	 0.996211 	 1.68451 	 0.673898 	 0.72 	 8 
-0.975 	 0.99619 	 1.68647 	 0.673839 	 0.725 	 8 
-0.97 	 0.996168 	 1.68843 	 0.673779 	 0.73 	 8 
-0.965 	 0.996147 	 1.69039 	 0.673717 	 0.735 	 8 
-0.96 	 0.996125 	 1.69234 	 0.673655 	 0.74 	 8 
-0.955 	 0.996102 	 1.69431 	 0.67359 	 0.745 	 8 
-0.95 	 0.99608 	 1.69627 	 0.673525 	 0.75 	 8 
-0.945 	 0.996058 	 1.69823 	 0.673459 	 0.755 	 8 
-0.94 	 0.996035 	 1.70019 	 0.673391 	 0.76 	 8 
-0.935 	 0.996012 	 1.70215 	 0.673323 	 0.765 	 8 
-0.93 	 0.995989 	 1.7041 	 0.673253 	 0.77 	 8 
-0.925 	 0.995965 	 1.70606 	 0.673183 	 0.775 	 8 
-0.92 	 0.995942 	 1.70801 	 0.673111 	 0.78 	 8 
-0.915 	 0.995918 	 1.70996 	 0.673038 	 0.785 	 8 
-0.91 	 0.995894 	 1.71191 	 0.672964 	 0.79 	 8 
-0.905 	 0.99587 	 1.71386 	 0.672889 	 0.795 	 8 
-0.9 	 0.995845 	 1.7158 	 0.672814 	 0.8 	 8 
-0.895 	 0.99582 	 1.71774 	 0.672737 	 0.805 	 8 
-0.89 	 0.995795 	 1.71968 	 0.672659 	 0.81 	 8 
-0.885 	 0.99577 	 1.72162 	 0.672581 	 0.815 	 8 
-0.88 	 0.995745 	 1.72355 	 0.672501 	 0.82 	 8 
-0.875 	 0.995719 	 1.72549 	 0.672421 	 0.825 	 8 
-0.87 	 0.995693 	 1.72743 	 0.67234 	 0.83 	 8 
-0.865 	 0.995667 	 1.72936 	 0.672258 	 0.835 	 8 
-0.86 	 0.995641 	 1.7313 	 0.672175 	 0.84 	 8 
-0.855 	 0.995614 	 1.73319 	 0.672099 	 0.845 	 7 
-0.85 	 0.995587 	 1.73512 	 0.672015 	 0.85 	 7 
-0.845 	 0.99556 	 1.73705 	 0.671929 	 0.855 	 7 
-0.84 	 0.995533 	 1.73898 	 0.671844 	 0.86 	 7 
-0.835 	 0.995505 	 1.7409 	 0.671757 	 0.865 	 7 
-0.83 	 0.995477 	 1.74282 	 0.67167 	 0.87 	 7 
-0.825 	 0.995449 	 1.74474 	 0.671582 	 0.875 	 7 
-0.82 	 0.99542 	 1.74666 	 0.671493 	 0.88 	 7 
-0.815 	 0.995392 	 1.74857 	 0.671404 	 0.885 	 7 
-0.81 	 0.995363 	 1.75048 	 0.671314 	 0.89 	 7 
-0.805 	 0.995333 	 1.75238 	 0.671224 	 0.895 	 7 
-0.8 	 0.995304 	 1.75429 	 0.671133 	 0.9 	 7 
-0.795 	 0.995274 	 1.75619 	 0.671041 	 0.905 	 7 
-0.79 	 0.995243 	 1.75808 	 0.670949 	 0.91 	 7 
-0.785 	 0.995213 	 1.75998 	 0.670856 	 0.915 	 7 
-0.78 	 0.995182 	 1.76188 	 0.670763 	 0.92 	 7 
-0.775 	 0.995151 	 1.76378 	 0.67067 	 0.925 	 7 
-0.77 	 0.995119 	 1.76567 	 0.670575 	 0.93 	 7 
-0.765 	 0.995088 	 1.76756 	 0.670481 	 0.935 	 7 
-0.76 	 0.995055 	 1.76945 	 0.670386 	 0.94 	 7 
-0.755 	 0.995023 	 1.77134 	 0.67029 	 0.945 	 7 
-0.75 	 0.99499 	 1.77322 	 0.670195 	 0.95 	 7 
-0.745 	 0.994957 	 1.7751 	 0.670098 	 0.955 	 7 
-0.74 	 0.994924 	 1.77697 	 0.670002 	 0.96 	 7 
-0.735 	 0.99489 	 1.77884 	 0.669905 	 0.965 	 7 
-0.73 	 0.994856 	 1.78071 	 0.669807 	 0.97 	 7 
-0.725 	 0.994821 	 1.78257 	 0.66971 	 0.975 	 7 
-0.72 	 0.994786 	 1.78443 	 0.669612 	 0.98 	 7 
-0.715 	 0.994751 	 1.78629 	 0.669514 	 0.985 	 7 
-0.71 	 0.994715 	 1.78814 	 0.669415 	 0.99 	 7 
-0.705 	 0.994679 	 1.78999 	 0.669316 	 0.995 	 7 
-0.7 	 0.994643 	 1.79183 	 0.669217 	 1 	 7 
-0.695 	 0.994606 	 1.79367 	 0.669118 	 0.995 	 7 
-0.69 	 0.994569 	 1.79551 	 0.669019 	 0.99 	 7 
-0.685 	 0.994531 	 1.79736 	 0.668919 	 0.985 	 7 
-0.68 	 0.994493 	 1.79919 	 0.668819 	 0.98 	 7 
-0.675 	 0.994455 	 1.80103 	 0.668719 	 0.975 	 7 
-0.67 	 0.994416 	 1.80286 	 0.668619 	 0.97 	 7 
-0.665 	 0.994377 	 1.80469 	 0.668519 	 0.965 	 7 
-0.66 	 0.994337 	 1.80651 	 0.668418 	 0.96 	 7 
-0.655 	 0.994297 	 1.80833 	 0.668318 	 0.955 	 7 
-0.65 	 0.994256 	 1.81014 	 0.668217 	 0.95 	 7 
-0.645 	 0.994215 	 1.81195 	 0.668116 	 0.945 	 7 
-0.64 	 0.994173 	 1.81376 	 0.668016 	 0.94 	 7 
-0.635 	 0.994131 	 1.81556 	 0.667915 	 0.935 	 7 
-0.63 	 0.994089 	 1.81736 	 0.667814 	 0.93 	 7 
-0.625 	 0.994046 	 1.81915 	 0.667713 	 0.925 	 7 
-0.62 	 0.994002 	 1.82094 	 0.667612 	 0.92 	 7 
-0.615 	 0.993958 	 1.82272 	 0.667511 	 0.915 	 7 
-0.61 	 0.993914 	 1.8245 	 0.667411 	 0.91 	 7 
-0.605 	 0.993869 	 1.82628 	 0.66731 	 0.905 	 7 
-0.6 	 0.993823 	 1.82805 	 0.667209 	 0.9 	 7 
-0.595 	 0.993777 	 1.82982 	 0.667109 	 0.895 	 7 
-0.59 	 0.993731 	 1.83158 	 0.667008 	 0.89 	 7 
-0.585 	 0.993683 	 1.83335 	 0.666908 	 0.885 	 7 
-0.58 	 0.993636 	 1.83511 	 0.666808 	 0.88 	 7 
-0.575 	 0.993587 	 1.83687 	 0.666707 	 0.875 	 7 
-0.57 	 0.993538 	 1.83862 	 0.666607 	 0.87 	 7 
-0.565 	 0.993489 	 1.84037 	 0.666508 	 0.865 	 7 
-0.56 	 0.993439 	 1.84211 	 0.666408 	 0.86 	 7 
-0.555 	 0.993388 	 1.84385 	 0.666309 	 0.855 	 7 
-0.55 	 0.993336 	 1.84558 	 0.666209 	 0.85 	 7 
-0.545 	 0.993284 	 1.84731 	 0.66611 	 0.845 	 7 
-0.54 	 0.993232 	 1.84903 	 0.666012 	 0.84 	 7 
-0.535 	 0.993178 	 1.85075 	 0.665913 	 0.835 	 7 
-0.53 	 0.993125 	 1.85243 	 0.665823 	 0.83 	 6 
-0.525 	 0.99307 	 1.85414 	 0.665725 	 0.825 	 6 
-0.52 	 0.993014 	 1.85584 	 0.665627 	 0.82 	 6 
-0.515 	 0.992958 	 1.85754 	 0.665529 	 0.815 	 6 
-0.51 	 0.992901 	 1.85924 	 0.665432 	 0.81 	 6 
-0.505 	 0.992844 	 1.86093 	 0.665336 	 0.805 	 6 
-0.5 	 0.992786 	 1.86261 	 0.665239 	 0.8 	 6 
-0.495 	 0.992726 	 1.86429 	 0.665143 	 0.795 	 6 
-0.49 	 0.992667 	 1.86597 	 0.665048 	 0.79 	 6 
-0.485 	 0.992606 	 1.86763 	 0.664953 	 0.785 	 6 
-0.48 	 0.992544 	 1.8693 	 0.664858 	 0.78 	 6 
-0.475 	 0.992482 	 1.87097 	 0.664764 	 0.775 	 6 
-0.47 	 0.992419 	 1.87263 	 0.66467 	 0.77 	 6 
-0.465 	 0.992355 	 1.87429 	 0.664576 	 0.765 	 6 
-0.46 	 0.99229 	 1.87594 	 0.664484 	 0.76 	 6 
-0.455 	 0.992224 	 1.87759 	 0.664391 	 0.755 	 6 
-0.45 	 0.992157 	 1.87923 	 0.6643 	 0.75 	 6 
-0.445 	 0.99209 	 1.88086 	 0.664208 	 0.745 	 6 
-0.44 	 0.992021 	 1.88249 	 0.664118 	 0.74 	 6 
-0.435 	 0.991952 	 1.88412 	 0.664028 	 0.735 	 6 
-0.43 	 0.991881 	 1.88573 	 0.663938 	 0.73 	 6 
-0.425 	 0.99181 	 1.88735 	 0.663849 	 0.725 	 6 
-0.42 	 0.991737 	 1.88895 	 0.663761 	 0.72 	 6 
-0.415 	 0.991663 	 1.89056 	 0.663673 	 0.715 	 6 
-0.41 	 0.991589 	 1.89215 	 0.663586 	 0.71 	 6 
-0.405 	 0.991513 	 1.89374 	 0.6635 	 0.705 	 6 
-0.4 	 0.991436 	 1.89533 	 0.663414 	 0.7 	 6 
-0.395 	 0.991358 	 1.89691 	 0.66333 	 0.695 	 6 
-0.39 	 0.991279 	 1.89848 	 0.663245 	 0.69 	 6 
-0.385 	 0.991198 	 1.90005 	 0.663162 	 0.685 	 6 
-0.38 	 0.991117 	 1.90161 	 0.663079 	 0.68 	 6 
-0.375 	 0.991034 	 1.90317 	 0.662997 	 0.675 	 6 
-0.37 	 0.99095 	 1.90472 	 0.662916 	 0.67 	 6 
-0.365 	 0.990864 	 1.90626 	 0.662836 	 0.665 	 6 
-0.36 	 0.990777 	 1.90781 	 0.662757 	 0.66 	 6 
-0.355 	 0.990689 	 1.90935 	 0.662678 	 0.655 	 6 
-0.35 	 0.9906 	 1.91088 	 0.6626 	 0.65 	 6 
-0.345 	 0.990509 	 1.91241 	 0.662523 	 0.645 	 6 
-0.34 	 0.990416 	 1.91394 	 0.662448 	 0.64 	 6 
-0.335 	 0.990322 	 1.91545 	 0.662373 	 0.635 	 6 
-0.33 	 0.990227 	 1.91696 	 0.662298 	 0.63 	 6 
-0.325 	 0.99013 	 1.91847 	 0.662225 	 0.625 	 6 
-0.32 	 0.990032 	 1.91997 	 0.662153 	 0.62 	 6 
-0.315 	 0.989931 	 1.92146 	 0.662082 	 0.615 	 6 
-0.31 	 0.98983 	 1.92295 	 0.662012 	 0.61 	 6 
-0.305 	 0.989726 	 1.92443 	 0.661943 	 0.605 	 6 
-0.3 	 0.989621 	 1.92591 	 0.661875 	 0.6 	 6 
-0.295 	 0.989514 	 1.92737 	 0.661808 	 0.595 	 6 
-0.29 	 0.989405 	 1.92884 	 0.661742 	 0.59 	 6 
-0.285 	 0.989294 	 1.93029 	 0.661677 	 0.585 	 6 
-0.28 	 0.989181 	 1.93174 	 0.661614 	 0.58 	 6 
-0.275 	 0.989066 	 1.93319 	 0.661551 	 0.575 	 6 
-0.27 	 0.988949 	 1.93462 	 0.66149 	 0.57 	 6 
-0.265 	 0.988831 	 1.93605 	 0.66143 	 0.565 	 6 
-0.26 	 0.988709 	 1.93748 	 0.661371 	 0.56 	 6 
-0.255 	 0.988586 	 1.9389 	 0.661313 	 0.555 	 6 
-0.25 	 0.988461 	 1.94031 	 0.661257 	 0.55 	 6 
-0.245 	 0.988333 	 1.94171 	 0.661202 	 0.545 	 6 
-0.24 	 0.988203 	 1.94311 	 0.661148 	 0.54 	 6 
-0.235 	 0.98807 	 1.94451 	 0.661096 	 0.535 	 6 
-0.23 	 0.987935 	 1.9459 	 0.661044 	 0.53 	 6 
-0.225 	 0.987797 	 1.94729 	 0.660995 	 0.525 	 6 
-0.22 	 0.987657 	 1.94867 	 0.660946 	 0.52 	 6 
-0.215 	 0.987514 	 1.95004 	 0.660899 	 0.515 	 6 
-0.21 	 0.987368 	 1.95141 	 0.660854 	 0.51 	 6 
-0.205 	 0.987219 	 1.95277 	 0.66081 	 0.505 	 6 
-0.2 	 0.987068 	 1.95413 	 0.660768 	 0.5 	 6 
-0.195 	 0.986913 	 1.95547 	 0.660727 	 0.495 	 6 
-0.19 	 0.986755 	 1.95682 	 0.660687 	 0.49 	 6 
-0.185 	 0.986594 	 1.95815 	 0.660649 	 0.485 	 6 
-0.18 	 0.986429 	 1.95948 	 0.660613 	 0.48 	 6 
-0.175 	 0.986261 	 1.9608 	 0.660578 	 0.475 	 6 
-0.17 	 0.98609 	 1.96212 	 0.660545 	 0.47 	 6 
-0.165 	 0.985915 	 1.96342 	 0.660514 	 0.465 	 6 
-0.16 	 0.985736 	 1.96473 	 0.660484 	 0.46 	 6 
-0.155 	 0.985553 	 1.96602 	 0.660456 	 0.455 	 6 
-0.15 	 0.985366 	 1.96731 	 0.66043 	 0.45 	 6 
-0.145 	 0.985175 	 1.96859 	 0.660406 	 0.445 	 6 
-0.14 	 0.98498 	 1.96983 	 0.660392 	 0.44 	 5 
-0.135 	 0.984781 	 1.9711 	 0.660371 	 0.435 	 5 
-0.13 	 0.984577 	 1.97236 	 0.660352 	 0.43 	 5 
-0.125 	 0.984368 	 1.97361 	 0.660335 	 0.425 	 5 
-0.12 	 0.984154 	 1.97486 	 0.66032 	 0.42 	 5 
-0.115 	 0.983936 	 1.9761 	 0.660307 	 0.415 	 5 
-0.11 	 0.983712 	 1.97733 	 0.660296 	 0.41 	 5 
-0.105 	 0.983483 	 1.97856 	 0.660287 	 0.405 	 5 
-0.1 	 0.983248 	 1.97978 	 0.66028 	 0.4 	 5 
-0.095 	 0.983007 	 1.98099 	 0.660275 	 0.395 	 5 
-0.09 	 0.982761 	 1.98219 	 0.660272 	 0.39 	 5 
-0.085 	 0.982508 	 1.98339 	 0.660272 	 0.385 	 5 
-0.08 	 0.982249 	 1.98459 	 0.660273 	 0.38 	 5 
-0.075 	 0.981983 	 1.98578 	 0.660277 	 0.375 	 5 
-0.07 	 0.981711 	 1.98696 	 0.660284 	 0.37 	 5 
-0.065 	 0.981431 	 1.98814 	 0.660292 	 0.365 	 5 
-0.06 	 0.981143 	 1.98931 	 0.660303 	 0.36 	 5 
-0.055 	 0.980848 	 1.99047 	 0.660317 	 0.355 	 5 
-0.05 	 0.980545 	 1.99163 	 0.660332 	 0.35 	 5 
-0.045 	 0.980234 	 1.99277 	 0.660351 	 0.345 	 5 
-0.04 	 0.979914 	 1.99391 	 0.660372 	 0.34 	 5 
-0.035 	 0.979585 	 1.99504 	 0.660395 	 0.335 	 5 
-0.03 	 0.979246 	 1.99617 	 0.660422 	 0.33 	 5 
-0.025 	 0.978898 	 1.99729 	 0.660451 	 0.325 	 5 
-0.02 	 0.978539 	 1.9984 	 0.660482 	 0.32 	 5 
-0.015 	 0.97817 	 1.9995 	 0.660517 	 0.315 	 5 
-0.01 	 0.977789 	 2.00059 	 0.660554 	 0.31 	 5 
-0.005 	 0.977397 	 2.00168 	 0.660594 	 0.305 	 5 
8.20524e-16 	 0.976993 	 2.00276 	 0.660637 	 0.3 	 5 
0.005 	 0.976576 	 2.00383 	 0.660684 	 0.295 	 5 
0.01 	 0.976146 	 2.0049 	 0.660733 	 0.29 	 5 
0.015 	 0.975702 	 2.00596 	 0.660785 	 0.285 	 5 
0.02 	 0.975244 	 2.00701 	 0.660841 	 0.28 	 5 
0.025 	 0.97477 	 2.00805 	 0.6609 	 0.275 	 5 
0.03 	 0.97428 	 2.00908 	 0.660962 	 0.27 	 5 
0.035 	 0.973773 	 2.01011 	 0.661028 	 0.265 	 5 
0.04 	 0.973249 	 2.01113 	 0.661097 	 0.26 	 5 
0.045 	 0.972707 	 2.01214 	 0.661169 	 0.255 	 5 
0.05 	 0.972145 	 2.01314 	 0.661246 	 0.25 	 5 
0.055 	 0.971562 	 2.01414 	 0.661326 	 0.245 	 5 
0.06 	 0.970959 	 2.01512 	 0.66141 	 0.24 	 5 
0.065 	 0.970332 	 2.0161 	 0.661497 	 0.235 	 5 
0.07 	 0.969682 	 2.01708 	 0.661589 	 0.23 	 5 
0.075 	 0.969007 	 2.01804 	 0.661685 	 0.225 	 5 
0.08 	 0.968305 	 2.019 	 0.661784 	 0.22 	 5 
0.085 	 0.967576 	 2.01995 	 0.661889 	 0.215 	 5 
0.09 	 0.966817 	 2.0209 	 0.661997 	 0.21 	 5 
0.095 	 0.966026 	 2.02184 	 0.66211 	 0.205 	 5 
0.1 	 0.965203 	 2.02277 	 0.662228 	 0.2 	 5 
0.105 	 0.964346 	 2.02369 	 0.66235 	 0.195 	 5 
0.11 	 0.963451 	 2.02461 	 0.662477 	 0.19 	 5 
0.115 	 0.962517 	 2.02551 	 0.662609 	 0.185 	 5 
0.12 	 0.961543 	 2.02641 	 0.662747 	 0.18 	 5 
0.125 	 0.960525 	 2.0273 	 0.662889 	 0.175 	 5 
0.13 	 0.95946 	 2.02818 	 0.663037 	 0.17 	 5 
0.135 	 0.958347 	 2.02905 	 0.663191 	 0.165 	 5 
0.14 	 0.957182 	 2.02992 	 0.66335 	 0.16 	 5 
0.145 	 0.955963 	 2.03077 	 0.663516 	 0.155 	 5 
0.15 	 0.954686 	 2.03162 	 0.663687 	 0.15 	 5 
0.155 	 0.953349 	 2.03246 	 0.663865 	 0.145 	 5 
0.16 	 0.951948 	 2.03329 	 0.66405 	 0.14 	 5 
0.165 	 0.95048 	 2.03411 	 0.664241 	 0.135 	 5 
0.17 	 0.948943 	 2.03493 	 0.66444 	 0.13 	 5 
0.175 	 0.947334 	 2.03573 	 0.664646 	 0.125 	 5 
0.18 	 0.94565 	 2.03653 	 0.66486 	 0.12 	 5 
0.185 	 0.943891 	 2.03731 	 0.665082 	 0.115 	 5 
0.19 	 0.942056 	 2.03809 	 0.665312 	 0.11 	 5 
0.195 	 0.940147 	 2.03886 	 0.665551 	 0.105 	 5 
0.2 	 0.938167 	 2.03962 	 0.665799 	 0.1 	 5 
0.205 	 0.936124 	 2.04037 	 0.666057 	 0.095 	 5 
0.21 	 0.934031 	 2.04112 	 0.666326 	 0.09 	 5 
0.215 	 0.931906 	 2.04185 	 0.666605 	 0.085 	 5 
0.22 	 0.929778 	 2.04257 	 0.666896 	 0.08 	 5 
0.225 	 0.92769 	 2.04329 	 0.667199 	 0.075 	 5 
0.23 	 0.925707 	 2.04399 	 0.667515 	 0.07 	 5 
0.235 	 0.923924 	 2.04469 	 0.667845 	 0.065 	 5 
0.24 	 0.922484 	 2.04537 	 0.668191 	 0.06 	 5 
0.245 	 0.921604 	 2.04605 	 0.668552 	 0.055 	 5 
0.25 	 0.921623 	 2.04672 	 0.668931 	 0.05 	 5 
0.255 	 0.923079 	 2.04738 	 0.669329 	 0.045 	 5 
0.26 	 0.926862 	 2.04803 	 0.669747 	 0.04 	 5 
0.265 	 0.934497 	 2.04867 	 0.670187 	 0.035 	 5 
0.27 	 0.948717 	 2.04931 	 0.67065 	 0.03 	 5 
0.275 	 0.974726 	 2.04993 	 0.671136 	 0.025 	 5 
0.28 	 1.02332 	 2.05054 	 0.671646 	 0.02 	 5 
0.285 	 1.12014 	 2.05114 	 0.672178 	 0.015 	 5 
0.29 	 1.34237 	 2.05172 	 0.672729 	 0.01 	 5 
0.295 	 2.07507 	 2.0523 	 0.673293 	 0.005 	 5 
0.3 	 -6.63473e+12 	 2.05286 	 0.67574 	 1.01454e-15 	 5 
0.305 	 -1.07514 	 2.05341 	 0.676436 	 0.005 	 5 
0.31 	 -0.342424 	 2.05395 	 0.677 	 0.01 	 5 
0.315 	 -0.120185 	 2.05448 	 0.67755 	 0.015 	 5 
0.32 	 -0.0233457 	 2.05499 	 0.678081 	 0.02 	 5 
0.325 	 0.0252726 	 2.0555 	 0.678589 	 0.025 	 5 
0.33 	 0.0513027 	 2.05599 	 0.679074 	 0.03 	 5 
0.335 	 0.0655412 	 2.05647 	 0.679535 	 0.035 	 5 
0.34 	 0.0731935 	 2.05694 	 0.679973 	 0.04 	 5 
0.345 	 0.0769929 	 2.0574 	 0.680388 	 0.045 	 5 
0.35 	 0.0784636 	 2.05785 	 0.680783 	 0.05 	 5 
0.355 	 0.0784953 	 2.05829 	 0.681159 	 0.055 	 5 
0.36 	 0.0776278 	 2.05872 	 0.681517 	 0.06 	 5 
0.365 	 0.076199 	 2.05915 	 0.681858 	 0.065 	 5 
0.37 	 0.0744265 	 2.05956 	 0.682184 	 0.07 	 5 
0.375 	 0.0724533 	 2.05996 	 0.682496 	 0.075 	 5 
0.38 	 0.0703746 	 2.06035 	 0.682794 	 0.08 	 5 
0.385 	 0.0682547 	 2.06074 	 0.683079 	 0.085 	 5 
0.39 	 0.066137 	 2.06111 	 0.683353 	 0.09 	 5 
0.395 	 0.0640504 	 2.06148 	 0.683616 	 0.095 	 5 
0.4 	 0.0620142 	 2.06184 	 0.683867 	 0.1 	 5 
0.405 	 0.0600405 	 2.06218 	 0.684109 	 0.105 	 5 
0.41 	 0.0581366 	 2.06252 	 0.684341 	 0.11 	 5 
0.415 	 0.0563066 	 2.06285 	 0.684564 	 0.115 	 5 
0.42 	 0.0545519 	 2.06318 	 0.684778 	 0.12 	 5 
0.425 	 0.0528724 	 2.06349 	 0.684984 	 0.125 	 5 
0.43 	 0.0512669 	 2.0638 	 0.685181 	 0.13 	 5 
0.435 	 0.0497332 	 2.06411 	 0.685371 	 0.135 	 5 
0.44 	 0.0482688 	 2.0644 	 0.685553 	 0.14 	 5 
0.445 	 0.0468709 	 2.06469 	 0.685729 	 0.145 	 5 
0.45 	 0.0455364 	 2.06496 	 0.685897 	 0.15 	 5 
0.455 	 0.0442624 	 2.06523 	 0.686058 	 0.155 	 5 
0.46 	 0.0430456 	 2.06549 	 0.686213 	 0.16 	 5 
0.465 	 0.0418832 	 2.06575 	 0.686361 	 0.165 	 5 
0.47 	 0.0407723 	 2.06599 	 0.686503 	 0.17 	 5 
0.475 	 0.0397099 	 2.06623 	 0.68664 	 0.175 	 5 
0.48 	 0.0386936 	 2.06645 	 0.68677 	 0.18 	 5 
0.485 	 0.0377207 	 2.06667 	 0.686895 	 0.185 	 5 
0.49 	 0.0367895 	 2.06686 	 0.687023 	 0.19 	 4 
0.495 	 0.0358965 	 2.06706 	 0.687137 	 0.195 	 4 
0.5 	 0.0350402 	 2.06726 	 0.687245 	 0.2 	 4 
0.505 	 0.0342185 	 2.06744 	 0.687349 	 0.205 	 4 
0.51 	 0.0334297 	 2.06762 	 0.687448 	 0.21 	 4 
0.515 	 0.0326719 	 2.06779 	 0.687541 	 0.215 	 4 
0.52 	 0.0319436 	 2.06795 	 0.68763 	 0.22 	 4 
0.525 	 0.031243 	 2.06811 	 0.687714 	 0.225 	 4 
0.53 	 0.0305688 	 2.06826 	 0.687794 	 0.23 	 4 
0.535 	 0.0299197 	 2.06839 	 0.68787 	 0.235 	 4 
0.54 	 0.0292943 	 2.06852 	 0.687941 	 0.24 	 4 
0.545 	 0.0286914 	 2.06865 	 0.688007 	 0.245 	 4 
0.55 	 0.0281099 	 2.06876 	 0.68807 	 0.25 	 4 
0.555 	 0.0275488 	 2.06887 	 0.688128 	 0.255 	 4 
0.56 	 0.0270071 	 2.06897 	 0.688183 	 0.26 	 4 
0.565 	 0.0264837 	 2.06906 	 0.688233 	 0.265 	 4 
0.57 	 0.0259779 	 2.06914 	 0.68828 	 0.27 	 4 
0.575 	 0.0254889 	 2.06922 	 0.688322 	 0.275 	 4 
0.58 	 0.0250157 	 2.06929 	 0.688362 	 0.28 	 4 
0.585 	 0.0245578 	 2.06935 	 0.688397 	 0.285 	 4 
0.59 	 0.0241144 	 2.0694 	 0.688429 	 0.29 	 4 
0.595 	 0.0236848 	 2.06945 	 0.688457 	 0.295 	 4 
0.6 	 0.0232685 	 2.06949 	 0.688482 	 0.3 	 4 
0.605 	 0.0228649 	 2.06953 	 0.688503 	 0.305 	 4 
0.61 	 0.0224734 	 2.06956 	 0.688521 	 0.31 	 4 
0.615 	 0.0220935 	 2.06958 	 0.688536 	 0.315 	 4 
0.62 	 0.0217248 	 2.06959 	 0.688548 	 0.32 	 4 
0.625 	 0.0213666 	 2.0696 	 0.688556 	 0.325 	 4 
0.63 	 0.0210188 	 2.0696 	 0.688561 	 0.33 	 4 
0.635 	 0.0206807 	 2.06959 	 0.688563 	 0.335 	 4 
0.64 	 0.020352 	 2.06957 	 0.688562 	 0.34 	 4 
0.645 	 0.0200323 	 2.06955 	 0.688558 	 0.345 	 4 
0.65 	 0.0197213 	 2.06952 	 0.688551 	 0.35 	 4 
0.655 	 0.0194187 	 2.06948 	 0.688541 	 0.355 	 4 
0.66 	 0.0191241 	 2.06943 	 0.688528 	 0.36 	 4 
0.665 	 0.0188372 	 2.06938 	 0.688512 	 0.365 	 4 
0.67 	 0.0185577 	 2.06931 	 0.688494 	 0.37 	 4 
0.675 	 0.0182854 	 2.06924 	 0.688472 	 0.375 	 4 
0.68 	 0.01802 	 2.06917 	 0.688449 	 0.38 	 4 
0.685 	 0.0177612 	 2.06908 	 0.688422 	 0.385 	 4 
0.69 	 0.0175089 	 2.06899 	 0.688393 	 0.39 	 4 
0.695 	 0.0172627 	 2.06889 	 0.688361 	 0.395 	 4 
0.7 	 0.0170225 	 2.06879 	 0.688326 	 0.4 	 4 
0.705 	 0.016788 	 2.06867 	 0.688289 	 0.405 	 4 
0.71 	 0.016559 	 2.06855 	 0.688249 	 0.41 	 4 
0.715 	 0.0163355 	 2.06842 	 0.688207 	 0.415 	 4 
0.72 	 0.0161171 	 2.06829 	 0.688163 	 0.42 	 4 
0.725 	 0.0159038 	 2.06814 	 0.688116 	 0.425 	 4 
0.73 	 0.0156952 	 2.06799 	 0.688067 	 0.43 	 4 
0.735 	 0.0154914 	 2.06784 	 0.688015 	 0.435 	 4 
0.74 	 0.0152921 	 2.06767 	 0.687961 	 0.44 	 4 
0.745 	 0.0150972 	 2.0675 	 0.687905 	 0.445 	 4 
0.75 	 0.0149066 	 2.06732 	 0.687846 	 0.45 	 4 
0.755 	 0.0147201 	 2.06713 	 0.687785 	 0.455 	 4 
0.76 	 0.0145376 	 2.06694 	 0.687722 	 0.46 	 4 
0.765 	 0.0143589 	 2.06674 	 0.687657 	 0.465 	 4 
0.77 	 0.014184 	 2.06653 	 0.68759 	 0.47 	 4 
0.775 	 0.0140128 	 2.06632 	 0.68752 	 0.475 	 4 
0.78 	 0.013845 	 2.0661 	 0.687449 	 0.48 	 4 
0.785 	 0.0136807 	 2.06588 	 0.687375 	 0.485 	 4 
0.79 	 0.0135198 	 2.06564 	 0.687299 	 0.49 	 4 
0.795 	 0.013362 	 2.06541 	 0.687221 	 0.495 	 4 
0.8 	 0.0132074 	 2.06516 	 0.687141 	 0.5 	 4 
0.805 	 0.0130558 	 2.06491 	 0.68706 	 0.505 	 4 
0.81 	 0.0129072 	 2.06465 	 0.686976 	 0.51 	 4 
0.815 	 0.0127615 	 2.06438 	 0.68689 	 0.515 	 4 
0.82 	 0.0126186 	 2.06411 	 0.686802 	 0.52 	 4 
0.825 	 0.0124784 	 2.06382 	 0.686713 	 0.525 	 4 
0.83 	 0.0123408 	 2.06354 	 0.686621 	 0.53 	 4 
0.835 	 0.0122058 	 2.06324 	 0.686528 	 0.535 	 4 
0.84 	 0.0120733 	 2.06294 	 0.686433 	 0.54 	 4 
0.845 	 0.0119433 	 2.06263 	 0.686336 	 0.545 	 4 
0.85 	 0.0118156 	 2.06231 	 0.686237 	 0.55 	 4 
0.855 	 0.0116903 	 2.06198 	 0.686137 	 0.555 	 4 
0.86 	 0.0115671 	 2.06165 	 0.686034 	 0.56 	 4 
0.865 	 0.0114462 	 2.06131 	 0.68593 	 0.565 	 4 
0.87 	 0.0113274 	 2.06097 	 0.685824 	 0.57 	 4 
0.875 	 0.0112107 	 2.06062 	 0.685717 	 0.575 	 4 
0.88 	 0.0110961 	 2.06026 	 0.685608 	 0.58 	 4 
0.885 	 0.0109834 	 2.05989 	 0.685497 	 0.585 	 4 
0.89 	 0.0108726 	 2.05951 	 0.685384 	 0.59 	 4 
0.895 	 0.0107638 	 2.05913 	 0.68527 	 0.595 	 4 
0.9 	 0.0106567 	 2.05875 	 0.685154 	 0.6 	 4 
0.905 	 0.0105515 	 2.05835 	 0.685037 	 0.605 	 4 
0.91 	 0.010448 	 2.05795 	 0.684918 	 0.61 	 4 
0.915 	 0.0103462 	 2.05754 	 0.684797 	 0.615 	 4 
0.92 	 0.0102461 	 2.05712 	 0.684675 	 0.62 	 4 
0.925 	 0.0101476 	 2.0567 	 0.684552 	 0.625 	 4 
0.93 	 0.0100507 	 2.05627 	 0.684426 	 0.63 	 4 
0.935 	 0.00995535 	 2.05583 	 0.6843 	 0.635 	 4 
0.94 	 0.00986152 	 2.05539 	 0.684172 	 0.64 	 4 
0.945 	 0.00976918 	 2.05493 	 0.684042 	 0.645 	 4 
0.95 	 0.00967828 	 2.05448 	 0.683911 	 0.65 	 4 
0.955 	 0.0095888 	 2.05401 	 0.683778 	 0.655 	 4 
0.96 	 0.00950071 	 2.05354 	 0.683644 	 0.66 	 4 
0.965 	 0.00941397 	 2.05306 	 0.683509 	 0.665 	 4 
0.97 	 0.00932856 	 2.05258 	 0.683372 	 0.67 	 4 
0.975 	 0.00924444 	 2.0521 	 0.683234 	 0.675 	 4 
0.98 	 0.00916158 	 2.0516 	 0.683095 	 0.68 	 4 
0.985 	 0.00907997 	 2.0511 	 0.682954 	 0.685 	 4 
0.99 	 0.00899957 	 2.05059 	 0.682812 	 0.69 	 4 
0.995 	 0.00892036 	 2.05008 	 0.682668 	 0.695 	 4 
1 	 0.00884231 	 2.04955 	 0.682523 	 0.7 	 4 
1.005 	 0.0087654 	 2.04902 	 0.682377 	 0.705 	 4 
1.01 	 0.00868961 	 2.04849 	 0.682229 	 0.71 	 4 
1.015 	 0.0086149 	 2.04794 	 0.682081 	 0.715 	 4 
1.02 	 0.00854126 	 2.04739 	 0.681931 	 0.72 	 4 
1.025 	 0.00846867 	 2.04684 	 0.681779 	 0.725 	 4 
1.03 	 0.0083971 	 2.04627 	 0.681627 	 0.73 	 4 
1.035 	 0.00832654 	 2.0457 	 0.681473 	 0.735 	 4 
1.04 	 0.00825697 	 2.04512 	 0.681318 	 0.74 	 4 
1.045 	 0.00818835 	 2.04454 	 0.681162 	 0.745 	 4 
1.05 	 0.00812068 	 2.04395 	 0.681005 	 0.75 	 4 
1.055 	 0.00805394 	 2.04335 	 0.680846 	 0.755 	 4 
1.06 	 0.00798811 	 2.04274 	 0.680686 	 0.76 	 4 
1.065 	 0.00792317 	 2.04213 	 0.680525 	 0.765 	 4 
1.07 	 0.0078591 	 2.04151 	 0.680363 	 0.77 	 4 
1.075 	 0.00779589 	 2.04088 	 0.6802 	 0.775 	 4 
1.08 	 0.00773352 	 2.04025 	 0.680036 	 0.78 	 4 
1.085 	 0.00767197 	 2.03961 	 0.679871 	 0.785 	 4 
1.09 	 0.00761123 	 2.03896 	 0.679704 	 0.79 	 4 
1.095 	 0.00755128 	 2.03833 	 0.679532 	 0.795 	 5 
1.1 	 0.00749211 	 2.03767 	 0.679363 	 0.8 	 5 
1.105 	 0.00743371 	 2.037 	 0.679193 	 0.805 	 5 
1.11 	 0.00737606 	 2.03633 	 0.679023 	 0.81 	 5 
1.115 	 0.00731914 	 2.03565 	 0.678851 	 0.815 	 5 
1.12 	 0.00726295 	 2.03496 	 0.678678 	 0.82 	 5 
1.125 	 0.00720746 	 2.03426 	 0.678504 	 0.825 	 5 
1.13 	 0.00715268 	 2.03356 	 0.678329 	 0.83 	 5 
1.135 	 0.00709857 	 2.03285 	 0.678153 	 0.835 	 5 
1.14 	 0.00704514 	 2.03214 	 0.677976 	 0.84 	 5 
1.145 	 0.00699237 	 2.03142 	 0.677798 	 0.845 	 5 
1.15 	 0.00694024 	 2.03069 	 0.677619 	 0.85 	 5 
1.155 	 0.00688876 	 2.02995 	 0.677439 	 0.855 	 5 
1.16 	 0.0068379 	 2.02921 	 0.677259 	 0.86 	 5 
1.165 	 0.00678765 	 2.02846 	 0.677077 	 0.865 	 5 
1.17 	 0.006738 	 2.02771 	 0.676894 	 0.87 	 5 
1.175 	 0.00668895 	 2.02696 	 0.67671 	 0.875 	 5 
1.18 	 0.00664049 	 2.02619 	 0.676526 	 0.88 	 5 
1.185 	 0.00659259 	 2.02542 	 0.67634 	 0.885 	 5 
1.19 	 0.00654526 	 2.02464 	 0.676154 	 0.89 	 5 
1.195 	 0.00649849 	 2.02386 	 0.675967 	 0.895 	 5 
1.2 	 0.00645226 	 2.02306 	 0.675778 	 0.9 	 5 
1.205 	 0.00640656 	 2.02227 	 0.675589 	 0.905 	 5 
1.21 	 0.00636139 	 2.02146 	 0.675399 	 0.91 	 5 
1.215 	 0.00631674 	 2.02065 	 0.675209 	 0.915 	 5 
1.22 	 0.0062726 	 2.01983 	 0.675017 	 0.92 	 5 
1.225 	 0.00622896 	 2.019 	 0.674824 	 0.925 	 5 
1.23 	 0.00618582 	 2.01817 	 0.674631 	 0.93 	 5 
1.235 	 0.00614315 	 2.01733 	 0.674437 	 0.935 	 5 
1.24 	 0.00610097 	 2.01648 	 0.674242 	 0.94 	 5 
1.245 	 0.00605925 	 2.01563 	 0.674046 	 0.945 	 5 
1.25 	 0.006018 	 2.01477 	 0.67385 	 0.95 	 5 
1.255 	 0.0059772 	 2.0139 	 0.673652 	 0.955 	 5 
1.26 	 0.00593685 	 2.01303 	 0.673454 	 0.96 	 5 
1.265 	 0.00589694 	 2.01215 	 0.673255 	 0.965 	 5 
1.27 	 0.00585746 	 2.01126 	 0.673056 	 0.97 	 5 
1.275 	 0.00581841 	 2.01037 	 0.672855 	 0.975 	 5 
1.28 	 0.00577978 	 2.00947 	 0.672654 	 0.98 	 5 
1.285 	 0.00574156 	 2.00856 	 0.672452 	 0.985 	 5 
1.29 	 0.00570375 	 2.00765 	 0.672249 	 0.99 	 5 
1.295 	 0.00566634 	 2.00673 	 0.672046 	 0.995 	 5 
1.3 	 0.00562933 	 2.0058 	 0.671842 	 1 	 5 
1.305 	 0.0055927 	 2.00487 	 0.671637 	 1.005 	 5 
1.31 	 0.00555646 	 2.00393 	 0.671431 	 1.01 	 5 
1.315 	 0.0055206 	 2.00298 	 0.671225 	 1.015 	 5 
1.32 	 0.0054851 	 2.00203 	 0.671018 	 1.02 	 5 
1.325 	 0.00544998 	 2.00106 	 0.67081 	 1.025 	 5 
1.33 	 0.00541521 	 2.0001 	 0.670602 	 1.03 	 5 
1.335 	 0.0053808 	 1.99912 	 0.670393 	 1.035 	 5 
1.34 	 0.00534673 	 1.99814 	 0.670183 	 1.04 	 5 
1.345 	 0.00531302 	 1.99715 	 0.669973 	 1.045 	 5 
1.35 	 0.00527964 	 1.99616 	 0.669762 	 1.05 	 5 
1.355 	 0.0052466 	 1.99516 	 0.66955 	 1.055 	 5 
1.36 	 0.00521388 	 1.99415 	 0.669338 	 1.06 	 5 
1.365 	 0.0051815 	 1.99314 	 0.669125 	 1.065 	 5 
1.37 	 0.00514943 	 1.99212 	 0.668912 	 1.07 	 5 
1.375 	 0.00511768 	 1.9911 	 0.668698 	 1.075 	 5 
1.38 	 0.00508624 	 1.99007 	 0.668483 	 1.08 	 5 
1.385 	 0.00505511 	 1.98903 	 0.668268 	 1.085 	 5 
1.39 	 0.00502428 	 1.98799 	 0.668052 	 1.09 	 5 
1.395 	 0.00499375 	 1.98694 	 0.667835 	 1.095 	 5 
1.4 	 0.00496351 	 1.98589 	 0.667618 	 1.1 	 5 
1.405 	 0.00493357 	 1.98482 	 0.6674 	 1.105 	 5 
1.41 	 0.00490391 	 1.98375 	 0.667182 	 1.11 	 5 
1.415 	 0.00487453 	 1.98268 	 0.666963 	 1.115 	 5 
1.42 	 0.00484543 	 1.9816 	 0.666744 	 1.12 	 5 
1.425 	 0.00481661 	 1.98051 	 0.666524 	 1.125 	 5 
1.43 	 0.00478805 	 1.97941 	 0.666303 	 1.13 	 5 
1.435 	 0.00475977 	 1.97831 	 0.666082 	 1.135 	 5 
1.44 	 0.00473175 	 1.9772 	 0.665861 	 1.14 	 5 
1.445 	 0.00470398 	 1.97608 	 0.665639 	 1.145 	 5 
1.45 	 0.00467648 	 1.97496 	 0.665416 	 1.15 	 5 
1.455 	 0.00464922 	 1.97383 	 0.665193 	 1.155 	 5 
1.46 	 0.00462222 	 1.9727 	 0.664969 	 1.16 	 5 
1.465 	 0.00459546 	 1.97156 	 0.664745 	 1.165 	 5 
1.47 	 0.00456895 	 1.97041 	 0.664521 	 1.17 	 5 
1.475 	 0.00454268 	 1.96925 	 0.664295 	 1.175 	 5 
1.48 	 0.00451664 	 1.96809 	 0.66407 	 1.18 	 5 
1.485 	 0.00449084 	 1.96692 	 0.663844 	 1.185 	 5 
1.49 	 0.00446526 	 1.96575 	 0.663617 	 1.19 	 5 
1.495 	 0.00443992 	 1.96457 	 0.66339 	 1.195 	 5 
1.5 	 0.0044148 	 1.96338 	 0.663163 	 1.2 	 5 
1.505 	 0.0043899 	 1.96218 	 0.662935 	 1.205 	 5 
1.51 	 0.00436522 	 1.96098 	 0.662706 	 1.21 	 5 
1.515 	 0.00434076 	 1.95977 	 0.662477 	 1.215 	 5 
1.52 	 0.00431651 	 1.95856 	 0.662248 	 1.22 	 5 
1.525 	 0.00429247 	 1.95734 	 0.662018 	 1.225 	 5 
1.53 	 0.00426864 	 1.95611 	 0.661788 	 1.23 	 5 
1.535 	 0.00424501 	 1.95488 	 0.661558 	 1.235 	 5 
1.54 	 0.00422159 	 1.95364 	 0.661327 	 1.24 	 5 
1.545 	 0.00419837 	 1.95239 	 0.661095 	 1.245 	 5 
1.55 	 0.00417534 	 1.95114 	 0.660863 	 1.25 	 5 
1.555 	 0.00415251 	 1.94988 	 0.660631 	 1.255 	 5 
1.56 	 0.00412988 	 1.94861 	 0.660399 	 1.26 	 5 
1.565 	 0.00410743 	 1.94734 	 0.660166 	 1.265 	 5 
1.57 	 0.00408518 	 1.94606 	 0.659932 	 1.27 	 5 
1.575 	 0.00406311 	 1.94478 	 0.659698 	 1.27486 	 5 
1.58 	 0.00404122 	 1.94349 	 0.659464 	 1.2795 	 5 
1.585 	 0.00401951 	 1.9422 	 0.65923 	 1.28392 	 5 
1.59 	 0.00399799 	 1.9409 	 0.658995 	 1.28816 	 5 
1.595 	 0.00397664 	 1.93959 	 0.65876 	 1.2922 	 5 
1.6 	 0.00395546 	 1.93828 	 0.658524 	 1.29609 	 5 
1.605 	 0.00393446 	 1.93696 	 0.658288 	 1.29982 	 5 
1.61 	 0.00391363 	 1.93563 	 0.658052 	 1.30338 	 5 
1.615 	 0.00389297 	 1.9343 	 0.657815 	 1.30681 	 5 
1.62 	 0.00387248 	 1.93296 	 0.657578 	 1.3101 	 5 
1.625 	 0.00385215 	 1.93162 	 0.657341 	 1.31327 	 5 
1.63 	 0.00383198 	 1.93027 	 0.657103 	 1.31632 	 5 
1.635 	 0.00381198 	 1.92891 	 0.656865 	 1.31923 	 5 
1.64 	 0.00379213 	 1.92754 	 0.656627 	 1.32205 	 5 
1.645 	 0.00377244 	 1.92617 	 0.656388 	 1.32477 	 5 
1.65 	 0.00375291 	 1.9248 	 0.656149 	 1.32738 	 5 
1.655 	 0.00373353 	 1.92341 	 0.65591 	 1.32989 	 5 
1.66 	 0.0037143 	 1.92202 	 0.655671 	 1.33233 	 5 
1.665 	 0.00369522 	 1.92063 	 0.655431 	 1.33466 	 5 
1.67 	 0.00367629 	 1.91922 	 0.655191 	 1.33691 	 5 
1.675 	 0.00365751 	 1.91781 	 0.65495 	 1.33909 	 5 
1.68 	 0.00363887 	 1.9164 	 0.65471 	 1.34118 	 5 
1.685 	 0.00362038 	 1.91498 	 0.654469 	 1.34322 	 5 
1.69 	 0.00360203 	 1.91355 	 0.654228 	 1.34515 	 5 
1.695 	 0.00358382 	 1.91212 	 0.653986 	 1.34704 	 5 
1.7 	 0.00356575 	 1.91068 	 0.653745 	 1.34884 	 5 
1.705 	 0.00354781 	 1.90923 	 0.653503 	 1.35059 	 5 
1.71 	 0.00353001 	 1.90778 	 0.65326 	 1.35229 	 5 
1.715 	 0.00351234 	 1.90632 	 0.653018 	 1.3539 	 5 
1.72 	 0.00349481 	 1.90485 	 0.652775 	 1.35551 	 5 
1.725 	 0.00347741 	 1.90338 	 0.652532 	 1.35698 	 5 
1.73 	 0.00346014 	 1.9019 	 0.652289 	 1.35845 	 5 
1.735 	 0.00344299 	 1.90042 	 0.652046 	 1.35986 	 5 
1.74 	 0.00342598 	 1.89893 	 0.651802 	 1.36119 	 5 
1.745 	 0.00340908 	 1.89743 	 0.651558 	 1.36252 	 5 
1.75 	 0.00339232 	 1.89593 	 0.651314 	 1.36376 	 5 
1.755 	 0.00337567 	 1.89442 	 0.65107 	 1.36496 	 5 
1.76 	 0.00335915 	 1.8929 	 0.650825 	 1.36615 	 5 
1.765 	 0.00334275 	 1.89138 	 0.650581 	 1.36725 	 5 
1.77 	 0.00332646 	 1.88985 	 0.650336 	 1.36831 	 5 
1.775 	 0.0033103 	 1.88832 	 0.650091 	 1.36937 	 5 
1.78 	 0.00329425 	 1.88679 	 0.649845 	 1.37037 	 5 
1.785 	 0.00327831 	 1.88525 	 0.6496 	 1.37129 	 5 
1.79 	 0.00326249 	 1.8837 	 0.649354 	 1.37222 	 5 
1.795 	 0.00324678 	 1.88214 	 0.649108 	 1.37315 	 5 
1.8 	 0.00323119 	 1.88058 	 0.648862 	 1.37393 	 5 
1.805 	 0.0032157 	 1.87902 	 0.648616 	 1.37473 	 5 
1.81 	 0.00320033 	 1.87744 	 0.64837 	 1.37553 	 5 
1.815 	 0.00318506 	 1.87587 	 0.648123 	 1.37628 	 5 
1.82 	 0.0031699 	 1.87428 	 0.647877 	 1.37694 	 5 
1.825 	 0.00315484 	 1.87269 	 0.64763 	 1.3776 	 5 
1.83 	 0.00313989 	 1.87109 	 0.647383 	 1.37827 	 5 
1.835 	 0.00312509 	 1.86951 	 0.647135 	 1.37894 	 6 
1.84 	 0.00311035 	 1.8679 	 0.646888 	 1.37947 	 6 
1.845 	 0.00309571 	 1.86629 	 0.646641 	 1.38001 	 6 
1.85 	 0.00308117 	 1.86467 	 0.646393 	 1.38055 	 6 
1.855 	 0.00306673 	 1.86304 	 0.646145 	 1.3811 	 6 
1.86 	 0.00305238 	 1.86141 	 0.645898 	 1.38151 	 6 
1.865 	 0.00303814 	 1.85977 	 0.64565 	 1.38192 	 6 
1.87 	 0.00302399 	 1.85813 	 0.645402 	 1.38233 	 6 
1.875 	 0.00300993 	 1.85648 	 0.645154 	 1.38275 	 6 
1.88 	 0.00299598 	 1.85482 	 0.644905 	 1.38313 	 6 
1.885 	 0.00298211 	 1.85316 	 0.644657 	 1.38341 	 6 
1.89 	 0.00296834 	 1.85149 	 0.644409 	 1.3837 	 6 
1.895 	 0.00295466 	 1.84981 	 0.64416 	 1.38399 	 6 
1.9 	 0.00294107 	 1.84813 	 0.643911 	 1.38429 	 6 
1.905 	 0.00292757 	 1.84645 	 0.643663 	 1.38455 	 6 
1.91 	 0.00291416 	 1.84476 	 0.643414 	 1.38472 	 6 
1.915 	 0.00290084 	 1.84306 	 0.643165 	 1.38489 	 6 
1.92 	 0.0028876 	 1.84135 	 0.642916 	 1.38506 	 6 
1.925 	 0.00287446 	 1.83964 	 0.642667 	 1.38523 	 6 
1.93 	 0.00286139 	 1.83793 	 0.642418 	 1.38541 	 6 
1.935 	 0.00284842 	 1.83621 	 0.642168 	 1.38548 	 6 
1.94 	 0.00283553 	 1.83448 	 0.641919 	 1.38553 	 6 
1.945 	 0.00282272 	 1.83275 	 0.64167 	 1.38558 	 6 
1.95 	 0.00280999 	 1.83101 	 0.64142 	 1.38563 	 6 
1.955 	 0.00279734 	 1.82927 	 0.641171 	 1.38569 	 6 
1.96 	 0.00278478 	 1.82753 	 0.640921 	 1.38575 	 6 
1.965 	 0.0027723 	 1.82577 	 0.640672 	 1.38571 	 6 
1.97 	 0.00275989 	 1.82402 	 0.640422 	 1.38564 	 6 
1.975 	 0.00274756 	 1.82225 	 0.640173 	 1.38557 	 6 
1.98 	 0.00273532 	 1.82048 	 0.639923 	 1.3855 	 6 
1.985 	 0.00272315 	 1.81871 	 0.639673 	 1.38544 	 6 
1.99 	 0.00271105 	 1.81693 	 0.639424 	 1.38538 	 6 
1.995 	 0.00269903 	 1.81514 	 0.639174 	 1.38529 	 6 
2 	 0.00268709 	 1.81335 	 0.638924 	 1.38511 	 6 
2.005 	 0.00267522 	 1.81155 	 0.638674 	 1.38492 	 6 
2.01 	 0.00266342 	 1.80975 	 0.638424 	 1.38474 	 6 
2.015 	 0.0026517 	 1.80794 	 0.638175 	 1.38456 	 6 
2.02 	 0.00264005 	 1.80613 	 0.637925 	 1.38438 	 6 
2.025 	 0.00262847 	 1.80431 	 0.637675 	 1.3842 	 6 
2.03 	 0.00261697 	 1.80248 	 0.637425 	 1.38402 	 6 
2.035 	 0.00260553 	 1.80065 	 0.637175 	 1.38372 	 6 
2.04 	 0.00259416 	 1.79881 	 0.636925 	 1.38343 	 6 
2.045 	 0.00258286 	 1.79697 	 0.636675 	 1.38313 	 6 
2.05 	 0.00257163 	 1.79512 	 0.636426 	 1.38283 	 6 
2.055 	 0.00256047 	 1.79327 	 0.636176 	 1.38254 	 6 
2.06 	 0.00254938 	 1.79141 	 0.635926 	 1.38225 	 6 
2.065 	 0.00253835 	 1.78954 	 0.635676 	 1.38196 	 6 
2.07 	 0.00252739 	 1.78767 	 0.635427 	 1.38165 	 6 
2.075 	 0.00251649 	 1.7858 	 0.635177 	 1.38124 	 6 
2.08 	 0.00250566 	 1.78392 	 0.634927 	 1.38083 	 6 
2.085 	 0.00249489 	 1.78203 	 0.634677 	 1.38042 	 6 
2.09 	 0.00248419 	 1.78014 	 0.634428 	 1.38001 	 6 
2.095 	 0.00247355 	 1.77824 	 0.634178 	 1.37961 	 6 
2.1 	 0.00246297 	 1.77634 	 0.633929 	 1.3792 	 6 
2.105 	 0.00245245 	 1.77444 	 0.633679 	 1.3788 	 6 
2.11 	 0.002442 	 1.77253 	 0.63343 	 1.3784 	 6 
2.115 	 0.0024316 	 1.77062 	 0.63318 	 1.37794 	 6 
2.12 	 0.00242127 	 1.7687 	 0.632931 	 1.37742 	 6 
2.125 	 0.002411 	 1.76677 	 0.632682 	 1.3769 	 6 
2.13 	 0.00240079 	 1.76484 	 0.632433 	 1.37638 	 6 
2.135 	 0.00239063 	 1.76291 	 0.632183 	 1.37586 	 6 
2.14 	 0.00238053 	 1.76097 	 0.631934 	 1.37534 	 6 
2.145 	 0.0023705 	 1.75902 	 0.631685 	 1.37483 	 6 
2.15 	 0.00236051 	 1.75707 	 0.631437 	 1.37431 	 6 
2.155 	 0.00235059 	 1.75511 	 0.631188 	 1.3738 	 6 
2.16 	 0.00234072 	 1.75315 	 0.630939 	 1.37328 	 6 
2.165 	 0.00233091 	 1.75118 	 0.63069 	 1.37267 	 6 
2.17 	 0.00232116 	 1.74921 	 0.630442 	 1.37204 	 6 
2.175 	 0.00231145 	 1.74723 	 0.630193 	 1.37141 	 6 
2.18 	 0.00230181 	 1.74525 	 0.629945 	 1.37078 	 6 
2.185 	 0.00229221 	 1.74326 	 0.629696 	 1.37015 	 6 
2.19 	 0.00228268 	 1.74127 	 0.629448 	 1.36953 	 6 
2.195 	 0.00227319 	 1.73927 	 0.6292 	 1.3689 	 6 
2.2 	 0.00226376 	 1.73727 	 0.628952 	 1.36827 	 6 
2.205 	 0.00225438 	 1.73526 	 0.628704 	 1.36765 	 6 
2.21 	 0.00224505 	 1.73325 	 0.628457 	 1.36702 	 6 
2.215 	 0.00223577 	 1.73123 	 0.628209 	 1.36638 	 6 
2.22 	 0.00222654 	 1.72921 	 0.627961 	 1.36565 	 6 
2.225 	 0.00221737 	 1.72718 	 0.627714 	 1.36491 	 6 
2.23 	 0.00220824 	 1.72515 	 0.627467 	 1.36417 	 6 
2.235 	 0.00219917 	 1.72312 	 0.62722 	 1.36343 	 6 
2.24 	 0.00219014 	 1.72108 	 0.626973 	 1.3627 	 6 
2.245 	 0.00218119 	 1.71907 	 0.626726 	 1.362 	 7 
2.25 	 0.00217226 	 1.71702 	 0.626479 	 1.36127 	 7 
2.255 	 0.00216338 	 1.71497 	 0.626233 	 1.36053 	 7 
2.26 	 0.00215455 	 1.71291 	 0.625986 	 1.3598 	 7 
2.265 	 0.00214576 	 1.71085 	 0.62574 	 1.35906 	 7 
2.27 	 0.00213702 	 1.70878 	 0.625494 	 1.35833 	 7 
2.275 	 0.00212833 	 1.70671 	 0.625248 	 1.35759 	 7 
2.28 	 0.00211969 	 1.70464 	 0.625002 	 1.35674 	 7 
2.285 	 0.00211109 	 1.70256 	 0.624756 	 1.3559 	 7 
2.29 	 0.00210254 	 1.70047 	 0.624511 	 1.35506 	 7 
2.295 	 0.00209403 	 1.69838 	 0.624265 	 1.35421 	 7 
2.3 	 0.00208557 	 1.69629 	 0.62402 	 1.35337 	 7 
2.305 	 0.00207715 	 1.69419 	 0.623775 	 1.35252 	 7 
2.31 	 0.00206877 	 1.69208 	 0.62353 	 1.35168 	 7 
2.315 	 0.00206044 	 1.68998 	 0.623285 	 1.35083 	 7 
2.32 	 0.00205216 	 1.68786 	 0.623041 	 1.34999 	 7 
2.325 	 0.00204391 	 1.68575 	 0.622796 	 1.34914 	 7 
2.33 	 0.00203571 	 1.68362 	 0.622552 	 1.3483 	 7 
2.335 	 0.00202755 	 1.6815 	 0.622308 	 1.34745 	 7 
2.34 	 0.00201944 	 1.67937 	 0.622064 	 1.34661 	 7 
2.345 	 0.00201136 	 1.67724 	 0.621821 	 1.34572 	 7 
2.35 	 0.00200333 	 1.6751 	 0.621577 	 1.34477 	 7 
2.355 	 0.00199534 	 1.67296 	 0.621334 	 1.34382 	 7 
2.36 	 0.00198738 	 1.67082 	 0.621091 	 1.34286 	 7 
2.365 	 0.00197947 	 1.66867 	 0.620848 	 1.34191 	 7 
2.37 	 0.0019716 	 1.66652 	 0.620606 	 1.34096 	 7 
2.375 	 0.00196377 	 1.66436 	 0.620363 	 1.34001 	 7 
2.38 	 0.00195598 	 1.6622 	 0.620121 	 1.33905 	 7 
2.385 	 0.00194823 	 1.66003 	 0.619879 	 1.3381 	 7 
2.39 	 0.00194052 	 1.65786 	 0.619637 	 1.33715 	 7 
2.395 	 0.00193285 	 1.65569 	 0.619396 	 1.33619 	 7 
2.4 	 0.00192521 	 1.65351 	 0.619154 	 1.33524 	 7 
2.405 	 0.00191762 	 1.65133 	 0.618913 	 1.33428 	 7 
2.41 	 0.00191006 	 1.64914 	 0.618672 	 1.33333 	 7 
2.415 	 0.00190254 	 1.64695 	 0.618432 	 1.33237 	 7 
2.42 	 0.00189505 	 1.64475 	 0.618191 	 1.33142 	 7 
2.425 	 0.00188761 	 1.64255 	 0.617951 	 1.33038 	 7 
2.43 	 0.0018802 	 1.64035 	 0.617711 	 1.32932 	 7 
2.435 	 0.00187283 	 1.63815 	 0.617471 	 1.32826 	 7 
2.44 	 0.00186549 	 1.63595 	 0.617232 	 1.3272 	 7 
2.445 	 0.00185819 	 1.63374 	 0.616992 	 1.32614 	 7 
2.45 	 0.00185092 	 1.63152 	 0.616753 	 1.32508 	 7 
2.455 	 0.00184369 	 1.6293 	 0.616515 	 1.32402 	 7 
2.46 	 0.0018365 	 1.62708 	 0.616276 	 1.32295 	 7 
2.465 	 0.00182934 	 1.62485 	 0.616038 	 1.32189 	 7 
2.47 	 0.00182222 	 1.62262 	 0.6158 	 1.32083 	 7 
2.475 	 0.00181513 	 1.62039 	 0.615562 	 1.31976 	 7 
2.48 	 0.00180807 	 1.61815 	 0.615324 	 1.3187 	 7 
2.485 	 0.00180105 	 1.61591 	 0.615087 	 1.31763 	 7 
2.49 	 0.00179406 	 1.61366 	 0.61485 	 1.31657 	 7 
2.495 	 0.00178711 	 1.61141 	 0.614613 	 1.3155 	 7 
2.5 	 0.00178019 	 1.60916 	 0.614377 	 1.31444 	 7 
2.505 	 0.0017733 	 1.6069 	 0.614141 	 1.31337 	 7 
2.51 	 0.00176645 	 1.60465 	 0.613905 	 1.3123 	 7 
2.515 	 0.00175963 	 1.60239 	 0.613669 	 1.31116 	 7 
2.52 	 0.00175284 	 1.60013 	 0.613434 	 1.30999 	 7 
2.525 	 0.00174608 	 1.59786 	 0.613199 	 1.30883 	 7 
2.53 	 0.00173935 	 1.59559 	 0.612964 	 1.30766 	 7 
2.535 	 0.00173266 	 1.59331 	 0.612729 	 1.30649 	 7 
2.54 	 0.001726 	 1.59104 	 0.612495 	 1.30532 	 7 
2.545 	 0.00171937 	 1.58876 	 0.612261 	 1.30415 	 7 
2.55 	 0.00171277 	 1.58647 	 0.612027 	 1.30298 	 7 
2.555 	 0.0017062 	 1.58418 	 0.611794 	 1.30181 	 7 
2.56 	 0.00169967 	 1.58192 	 0.611562 	 1.30068 	 8 
2.565 	 0.00169316 	 1.57963 	 0.611329 	 1.29951 	 8 
2.57 	 0.00168669 	 1.57733 	 0.611096 	 1.29834 	 8 
2.575 	 0.00168024 	 1.57504 	 0.610864 	 1.29716 	 8 
2.58 	 0.00167382 	 1.57274 	 0.610632 	 1.29599 	 8 
2.585 	 0.00166744 	 1.57044 	 0.610401 	 1.29482 	 8 
2.59 	 0.00166108 	 1.56813 	 0.61017 	 1.29364 	 8 
2.595 	 0.00165475 	 1.56583 	 0.609939 	 1.29246 	 8 
2.6 	 0.00164845 	 1.56351 	 0.609708 	 1.29129 	 8 
2.605 	 0.00164218 	 1.5612 	 0.609478 	 1.29011 	 8 
2.61 	 0.00163594 	 1.55888 	 0.609248 	 1.28893 	 8 
2.615 	 0.00162972 	 1.55656 	 0.609018 	 1.28776 	 8 
2.62 	 0.00162354 	 1.55424 	 0.608789 	 1.28653 	 8 
2.625 	 0.00161738 	 1.55191 	 0.60856 	 1.28526 	 8 
2.63 	 0.00161125 	 1.54959 	 0.608331 	 1.28399 	 8 
2.635 	 0.00160515 	 1.54726 	 0.608103 	 1.28271 	 8 
2.64 	 0.00159908 	 1.54493 	 0.607875 	 1.28144 	 8 
2.645 	 0.00159303 	 1.5426 	 0.607647 	 1.28016 	 8 
2.65 	 0.00158701 	 1.54026 	 0.607419 	 1.27888 	 8 
2.655 	 0.00158102 	 1.53792 	 0.607192 	 1.27761 	 8 
2.66 	 0.00157505 	 1.53558 	 0.606966 	 1.27633 	 8 
2.665 	 0.00156912 	 1.53323 	 0.606739 	 1.27505 	 8 
2.67 	 0.0015632 	 1.53089 	 0.606513 	 1.27377 	 8 
2.675 	 0.00155732 	 1.52854 	 0.606288 	 1.27249 	 8 
2.68 	 0.00155146 	 1.52619 	 0.606062 	 1.27121 	 8 
2.685 	 0.00154563 	 1.52384 	 0.605837 	 1.26992 	 8 
2.69 	 0.00153982 	 1.52149 	 0.605613 	 1.26864 	 8 
2.695 	 0.00153404 	 1.51913 	 0.605388 	 1.26736 	 8 
2.7 	 0.00152828 	 1.51677 	 0.605164 	 1.26607 	 8 
2.705 	 0.00152255 	 1.51441 	 0.604941 	 1.26479 	 8 
2.71 	 0.00151685 	 1.51205 	 0.604718 	 1.2635 	 8 
2.715 	 0.00151117 	 1.50968 	 0.604495 	 1.26222 	 8 
2.72 	 0.00150551 	 1.50732 	 0.604272 	 1.26093 	 8 
2.725 	 0.00149988 	 1.50495 	 0.60405 	 1.25964 	 8 
2.73 	 0.00149427 	 1.50259 	 0.603828 	 1.25835 	 8 
2.735 	 0.00148869 	 1.50022 	 0.603607 	 1.25707 	 8 
2.74 	 0.00148314 	 1.49785 	 0.603386 	 1.25578 	 8 
2.745 	 0.0014776 	 1.49547 	 0.603165 	 1.25449 	 8 
2.75 	 0.0014721 	 1.4931 	 0.602945 	 1.25312 	 8 
2.755 	 0.00146661 	 1.49072 	 0.602725 	 1.25174 	 8 
2.76 	 0.00146115 	 1.48834 	 0.602505 	 1.25036 	 8 
2.765 	 0.00145571 	 1.48596 	 0.602286 	 1.24897 	 8 
2.77 	 0.0014503 	 1.48358 	 0.602067 	 1.24759 	 8 
2.775 	 0.00144491 	 1.4812 	 0.601849 	 1.24621 	 8 
2.78 	 0.00143954 	 1.47882 	 0.60163 	 1.24482 	 8 
2.785 	 0.0014342 	 1.47643 	 0.601413 	 1.24344 	 8 
2.79 	 0.00142888 	 1.47405 	 0.601195 	 1.24205 	 8 
2.795 	 0.00142358 	 1.47166 	 0.600979 	 1.24067 	 8 
2.8 	 0.0014183 	 1.46927 	 0.600762 	 1.23928 	 8 
2.805 	 0.00141305 	 1.46688 	 0.600546 	 1.23789 	 8 
2.81 	 0.00140782 	 1.46449 	 0.60033 	 1.2365 	 8 
2.815 	 0.00140261 	 1.4621 	 0.600115 	 1.23511 	 8 
2.82 	 0.00139742 	 1.45971 	 0.5999 	 1.23372 	 8 
2.825 	 0.00139226 	 1.45732 	 0.599685 	 1.23233 	 8 
2.83 	 0.00138711 	 1.45492 	 0.599471 	 1.23094 	 8 
2.835 	 0.00138199 	 1.45252 	 0.599257 	 1.22955 	 8 
2.84 	 0.00137689 	 1.45013 	 0.599044 	 1.22816 	 8 
2.845 	 0.00137182 	 1.44774 	 0.598831 	 1.22676 	 8 
2.85 	 0.00136676 	 1.44534 	 0.598618 	 1.22537 	 8 
2.855 	 0.00136173 	 1.44294 	 0.598406 	 1.22398 	 8 
2.86 	 0.00135672 	 1.44058 	 0.598195 	 1.22263 	 9 
2.865 	 0.00135173 	 1.43818 	 0.597984 	 1.22124 	 9 
2.87 	 0.00134676 	 1.43578 	 0.597773 	 1.21984 	 9 
2.875 	 0.0013418 	 1.43339 	 0.597562 	 1.21845 	 9 
2.88 	 0.00133687 	 1.43099 	 0.597352 	 1.21705 	 9 
2.885 	 0.00133196 	 1.42859 	 0.597142 	 1.21565 	 9 
2.89 	 0.00132707 	 1.42619 	 0.596933 	 1.21426 	 9 
2.895 	 0.00132221 	 1.42379 	 0.596724 	 1.21286 	 9 
2.9 	 0.00131736 	 1.42139 	 0.596516 	 1.21146 	 9 
2.905 	 0.00131253 	 1.41899 	 0.596308 	 1.21006 	 9 
2.91 	 0.00130772 	 1.41659 	 0.5961 	 1.20858 	 9 
2.915 	 0.00130293 	 1.41419 	 0.595893 	 1.20709 	 9 
2.92 	 0.00129816 	 1.41179 	 0.595686 	 1.20561 	 9 
2.925 	 0.00129341 	 1.40939 	 0.595479 	 1.20413 	 9 
2.93 	 0.00128868 	 1.40699 	 0.595273 	 1.20264 	 9 
2.935 	 0.00128397 	 1.40459 	 0.595068 	 1.20116 	 9 
2.94 	 0.00127928 	 1.40219 	 0.594863 	 1.19967 	 9 
2.945 	 0.00127461 	 1.3998 	 0.594658 	 1.19818 	 9 
2.95 	 0.00126996 	 1.3974 	 0.594454 	 1.1967 	 9 
2.955 	 0.00126532 	 1.395 	 0.59425 	 1.19521 	 9 
2.96 	 0.00126071 	 1.39259 	 0.594047 	 1.19372 	 9 
2.965 	 0.00125611 	 1.39019 	 0.593844 	 1.19223 	 9 
2.97 	 0.00125154 	 1.3878 	 0.593641 	 1.19074 	 9 
2.975 	 0.00124698 	 1.3854 	 0.593439 	 1.18925 	 9 
2.98 	 0.00124244 	 1.38301 	 0.593237 	 1.18776 	 9 
2.985 	 0.00123792 	 1.38061 	 0.593036 	 1.18627 	 9 
2.99 	 0.00123342 	 1.37821 	 0.592835 	 1.18478 	 9 
2.995 	 0.00122893 	 1.37581 	 0.592635 	 1.18329 	 9 
3 	 0.00122447 	 1.37342 	 0.592435 	 1.1818 	 9 
